Hours since 00:00 Jan 1,Hourly Data: System power generated (kW)
0.5,57240.1
1.5,115369
2.5,115194
3.5,-607.2
4.5,-607.2
5.5,-607.2
6.5,-607.2
7.5,-607.2
8.5,-607.2
9.5,-607.2
10.5,-4045.03
11.5,82528.3
12.5,110205
13.5,109763
14.5,109868
15.5,112160
16.5,111610
17.5,114046
18.5,114183
19.5,114024
20.5,8082.33
21.5,-607.2
22.5,-607.2
23.5,-607.2
24.5,-607.2
25.5,-607.2
26.5,-607.2
27.5,-607.2
28.5,-607.2
29.5,-607.2
30.5,-607.2
31.5,-607.2
32.5,-607.2
33.5,-607.2
34.5,-4237.74
35.5,94584.5
36.5,109698
37.5,109254
38.5,109506
39.5,110312
40.5,111532
41.5,113691
42.5,113854
43.5,113759
44.5,113629
45.5,46230.5
46.5,-607.2
47.5,-607.2
48.5,-607.2
49.5,-607.2
50.5,-607.2
51.5,-607.2
52.5,-607.2
53.5,-607.2
54.5,-607.2
55.5,-607.2
56.5,-607.2
57.5,-607.2
58.5,-3951.2
59.5,76775.1
60.5,110659
61.5,110459
62.5,110718
63.5,111325
64.5,112070
65.5,113037
66.5,113155
67.5,68800.3
68.5,-607.2
69.5,-607.2
70.5,-607.2
71.5,-607.2
72.5,-607.2
73.5,-607.2
74.5,-607.2
75.5,-607.2
76.5,-607.2
77.5,-607.2
78.5,-607.2
79.5,-607.2
80.5,-607.2
81.5,-607.2
82.5,-607.2
83.5,-3921.58
84.5,75052.2
85.5,110516
86.5,104759
87.5,-5131.8
88.5,10317
89.5,-1283.5
90.5,-607.2
91.5,-607.2
92.5,-607.2
93.5,-607.2
94.5,-607.2
95.5,-607.2
96.5,-607.2
97.5,-607.2
98.5,-607.2
99.5,-607.2
100.5,-607.2
101.5,-607.2
102.5,-607.2
103.5,-607.2
104.5,-607.2
105.5,-607.2
106.5,-3990.8
107.5,79538.4
108.5,111103
109.5,111247
110.5,111413
111.5,112022
112.5,111375
113.5,110754
114.5,38971.2
115.5,-607.2
116.5,-607.2
117.5,-607.2
118.5,-607.2
119.5,-607.2
120.5,-607.2
121.5,-607.2
122.5,-607.2
123.5,-607.2
124.5,-607.2
125.5,-607.2
126.5,-607.2
127.5,-607.2
128.5,-607.2
129.5,-607.2
130.5,-3054.8
131.5,34651.6
132.5,111748
133.5,11057.1
134.5,-607.2
135.5,-607.2
136.5,-3154.91
137.5,-835.968
138.5,-607.2
139.5,-607.2
140.5,-607.2
141.5,-607.2
142.5,-607.2
143.5,-607.2
144.5,-607.2
145.5,-607.2
146.5,-607.2
147.5,-607.2
148.5,-607.2
149.5,-607.2
150.5,-607.2
151.5,-607.2
152.5,-607.2
153.5,-607.2
154.5,-3973.09
155.5,78634.2
156.5,110294
157.5,109867
158.5,110004
159.5,110673
160.5,111684
161.5,111630
162.5,111792
163.5,111681
164.5,76189.9
165.5,-607.2
166.5,-607.2
167.5,-607.2
168.5,-607.2
169.5,-607.2
170.5,-607.2
171.5,-607.2
172.5,-607.2
173.5,-607.2
174.5,-607.2
175.5,-607.2
176.5,-607.2
177.5,-607.2
178.5,-2855.07
179.5,19122.6
180.5,110145
181.5,81283
182.5,-6411.09
183.5,110565
184.5,111600
185.5,112538
186.5,26115.3
187.5,-607.2
188.5,-607.2
189.5,-607.2
190.5,-607.2
191.5,-607.2
192.5,-607.2
193.5,-607.2
194.5,-607.2
195.5,-607.2
196.5,-607.2
197.5,-607.2
198.5,-607.2
199.5,-607.2
200.5,-607.2
201.5,-607.2
202.5,-4357.62
203.5,100964
204.5,109345
205.5,109712
206.5,109950
207.5,109970
208.5,111352
209.5,113516
210.5,113692
211.5,113618
212.5,113517
213.5,104262
214.5,-607.2
215.5,-607.2
216.5,-607.2
217.5,-607.2
218.5,-607.2
219.5,-607.2
220.5,-607.2
221.5,-607.2
222.5,-607.2
223.5,-607.2
224.5,-607.2
225.5,-607.2
226.5,-4059.28
227.5,83889.7
228.5,109923
229.5,109518
230.5,109764
231.5,110663
232.5,111714
233.5,113588
234.5,113750
235.5,113641
236.5,113464
237.5,-607.2
238.5,-607.2
239.5,-607.2
240.5,-607.2
241.5,-607.2
242.5,-607.2
243.5,-607.2
244.5,-607.2
245.5,-607.2
246.5,-607.2
247.5,-607.2
248.5,-607.2
249.5,-607.2
250.5,-3839.58
251.5,69052.8
252.5,110415
253.5,109894
254.5,109914
255.5,110461
256.5,111497
257.5,112027
258.5,113330
259.5,113454
260.5,113304
261.5,26047.3
262.5,-607.2
263.5,-607.2
264.5,-607.2
265.5,-607.2
266.5,-607.2
267.5,-607.2
268.5,-607.2
269.5,-607.2
270.5,-607.2
271.5,-607.2
272.5,-607.2
273.5,-607.2
274.5,-3647.5
275.5,54673
276.5,110747
277.5,110343
278.5,110518
279.5,111134
280.5,112020
281.5,112902
282.5,113018
283.5,70651.2
284.5,-607.2
285.5,-607.2
286.5,-607.2
287.5,-607.2
288.5,-607.2
289.5,-607.2
290.5,-607.2
291.5,-607.2
292.5,-607.2
293.5,-607.2
294.5,-607.2
295.5,-607.2
296.5,-607.2
297.5,-607.2
298.5,-3670.48
299.5,56370.1
300.5,110741
301.5,110474
302.5,110570
303.5,111036
304.5,111870
305.5,112769
306.5,112898
307.5,92686.2
308.5,-607.2
309.5,-607.2
310.5,-607.2
311.5,-607.2
312.5,-607.2
313.5,-607.2
314.5,-607.2
315.5,-607.2
316.5,-607.2
317.5,-607.2
318.5,-607.2
319.5,-607.2
320.5,-607.2
321.5,-607.2
322.5,-3112.68
323.5,40148.6
324.5,111488
325.5,28236.5
326.5,-2644.76
327.5,8054.13
328.5,84748.9
329.5,-835.968
330.5,-607.2
331.5,-607.2
332.5,-607.2
333.5,-607.2
334.5,-607.2
335.5,-607.2
336.5,-607.2
337.5,-607.2
338.5,-607.2
339.5,-607.2
340.5,-607.2
341.5,-607.2
342.5,-607.2
343.5,-607.2
344.5,-607.2
345.5,-607.2
346.5,-3176.74
347.5,42189
348.5,110771
349.5,110304
350.5,110172
351.5,110858
352.5,111850
353.5,111386
354.5,111510
355.5,88005.7
356.5,-607.2
357.5,-607.2
358.5,-607.2
359.5,-607.2
360.5,-607.2
361.5,-607.2
362.5,-607.2
363.5,-607.2
364.5,-607.2
365.5,-607.2
366.5,-607.2
367.5,-607.2
368.5,-607.2
369.5,-607.2
370.5,-3883.54
371.5,72440.1
372.5,110601
373.5,111147
374.5,111359
375.5,110992
376.5,12185.1
377.5,-607.2
378.5,-607.2
379.5,-607.2
380.5,-607.2
381.5,-607.2
382.5,-607.2
383.5,-607.2
384.5,-607.2
385.5,-607.2
386.5,-607.2
387.5,-607.2
388.5,-607.2
389.5,-607.2
390.5,-607.2
391.5,-607.2
392.5,-607.2
393.5,-607.2
394.5,-4048.65
395.5,83533.3
396.5,110086
397.5,109390
398.5,109322
399.5,109805
400.5,110856
401.5,112019
402.5,113099
403.5,113270
404.5,113182
405.5,113051
406.5,63002.1
407.5,-607.2
408.5,-607.2
409.5,-607.2
410.5,-607.2
411.5,-607.2
412.5,-607.2
413.5,-607.2
414.5,-607.2
415.5,-607.2
416.5,-607.2
417.5,-607.2
418.5,-4454.45
419.5,103905
420.5,109267
421.5,108680
422.5,108811
423.5,109583
424.5,110861
425.5,112137
426.5,113913
427.5,114089
428.5,114022
429.5,113931
430.5,113792
431.5,33682.1
432.5,-607.2
433.5,-607.2
434.5,-607.2
435.5,-607.2
436.5,-607.2
437.5,-607.2
438.5,-607.2
439.5,-607.2
440.5,-607.2
441.5,-607.2
442.5,-607.2
443.5,-3774.67
444.5,64075.4
445.5,110267
446.5,112037
447.5,111864
448.5,111330
449.5,112283
450.5,41780.9
451.5,-607.2
452.5,-607.2
453.5,-607.2
454.5,-607.2
455.5,-607.2
456.5,-607.2
457.5,-607.2
458.5,-607.2
459.5,-607.2
460.5,-607.2
461.5,-607.2
462.5,-607.2
463.5,-607.2
464.5,-607.2
465.5,-607.2
466.5,-4471.7
467.5,104424
468.5,109267
469.5,108650
470.5,108732
471.5,109461
472.5,110727
473.5,112078
474.5,113641
475.5,113809
476.5,113727
477.5,113634
478.5,113504
479.5,47585.5
480.5,-607.2
481.5,-607.2
482.5,-607.2
483.5,-607.2
484.5,-607.2
485.5,-607.2
486.5,-607.2
487.5,-607.2
488.5,-607.2
489.5,-607.2
490.5,-4141.84
491.5,89176.7
492.5,110253
493.5,110109
494.5,110431
495.5,111100
496.5,111980
497.5,113370
498.5,113524
499.5,113374
500.5,11231.7
501.5,-607.2
502.5,-607.2
503.5,-607.2
504.5,-607.2
505.5,-607.2
506.5,-607.2
507.5,-607.2
508.5,-607.2
509.5,-607.2
510.5,-607.2
511.5,-607.2
512.5,-607.2
513.5,-607.2
514.5,-3918.36
515.5,74626.2
516.5,110387
517.5,109916
518.5,109995
519.5,110516
520.5,112032
521.5,113205
522.5,113352
523.5,113206
524.5,36620.5
525.5,-607.2
526.5,-607.2
527.5,-607.2
528.5,-607.2
529.5,-607.2
530.5,-607.2
531.5,-607.2
532.5,-607.2
533.5,-607.2
534.5,-607.2
535.5,-607.2
536.5,-607.2
537.5,-607.2
538.5,-607.2
539.5,-607.2
540.5,-607.2
541.5,-607.2
542.5,-607.2
543.5,-607.2
544.5,-4017.55
545.5,-835.968
546.5,-607.2
547.5,-607.2
548.5,-607.2
549.5,-607.2
550.5,-607.2
551.5,-607.2
552.5,-607.2
553.5,-607.2
554.5,-607.2
555.5,-607.2
556.5,-607.2
557.5,-607.2
558.5,-607.2
559.5,-607.2
560.5,-607.2
561.5,-607.2
562.5,-3726.67
563.5,61136.1
564.5,111167
565.5,111732
566.5,110587
567.5,112024
568.5,112030
569.5,108923
570.5,14748.7
571.5,-607.2
572.5,-607.2
573.5,-607.2
574.5,-607.2
575.5,-607.2
576.5,-607.2
577.5,-607.2
578.5,-607.2
579.5,-607.2
580.5,-607.2
581.5,-607.2
582.5,-607.2
583.5,-607.2
584.5,-607.2
585.5,-607.2
586.5,-607.2
587.5,-607.2
588.5,-3720.05
589.5,-835.968
590.5,-607.2
591.5,-607.2
592.5,-3597.91
593.5,-840.194
594.5,-607.2
595.5,-607.2
596.5,-607.2
597.5,-607.2
598.5,-607.2
599.5,-607.2
600.5,-607.2
601.5,-607.2
602.5,-607.2
603.5,-607.2
604.5,-607.2
605.5,-607.2
606.5,-607.2
607.5,-607.2
608.5,-607.2
609.5,-607.2
610.5,-3918.29
611.5,75210.2
612.5,110803
613.5,110460
614.5,110473
615.5,110900
616.5,111679
617.5,110437
618.5,109450
619.5,109564
620.5,65010.4
621.5,-607.2
622.5,-607.2
623.5,-607.2
624.5,-607.2
625.5,-607.2
626.5,-607.2
627.5,-607.2
628.5,-607.2
629.5,-607.2
630.5,-607.2
631.5,-607.2
632.5,-607.2
633.5,-607.2
634.5,-1970.43
635.5,-2852.36
636.5,-4023.33
637.5,82945.7
638.5,112004
639.5,111954
640.5,74529.4
641.5,-835.968
642.5,-607.2
643.5,-607.2
644.5,-607.2
645.5,-607.2
646.5,-607.2
647.5,-607.2
648.5,-607.2
649.5,-607.2
650.5,-607.2
651.5,-607.2
652.5,-607.2
653.5,-607.2
654.5,-607.2
655.5,-607.2
656.5,-607.2
657.5,-607.2
658.5,-607.2
659.5,-607.2
660.5,-607.2
661.5,-3221.99
662.5,43667.2
663.5,110863
664.5,67223.5
665.5,-835.968
666.5,-607.2
667.5,-607.2
668.5,-607.2
669.5,-607.2
670.5,-607.2
671.5,-607.2
672.5,-607.2
673.5,-607.2
674.5,-607.2
675.5,-607.2
676.5,-607.2
677.5,-607.2
678.5,-607.2
679.5,-607.2
680.5,-607.2
681.5,-607.2
682.5,-3167.76
683.5,40437.2
684.5,111591
685.5,111297
686.5,111324
687.5,111673
688.5,111283
689.5,103559
690.5,9891.29
691.5,-607.2
692.5,-607.2
693.5,-607.2
694.5,-607.2
695.5,-607.2
696.5,-607.2
697.5,-607.2
698.5,-607.2
699.5,-607.2
700.5,-607.2
701.5,-607.2
702.5,-607.2
703.5,-607.2
704.5,-607.2
705.5,-607.2
706.5,-3587.41
707.5,53773.8
708.5,111482
709.5,111200
710.5,111234
711.5,111622
712.5,111638
713.5,108090
714.5,39247.5
715.5,-607.2
716.5,-607.2
717.5,-607.2
718.5,-607.2
719.5,-607.2
720.5,-607.2
721.5,-607.2
722.5,-607.2
723.5,-607.2
724.5,-607.2
725.5,-607.2
726.5,-607.2
727.5,-607.2
728.5,-607.2
729.5,-607.2
730.5,-3707.47
731.5,60207.6
732.5,111129
733.5,110750
734.5,110689
735.5,111079
736.5,111786
737.5,111063
738.5,111210
739.5,111285
740.5,8369.65
741.5,-607.2
742.5,-607.2
743.5,-607.2
744.5,-607.2
745.5,-607.2
746.5,-607.2
747.5,-607.2
748.5,-607.2
749.5,-607.2
750.5,-607.2
751.5,-607.2
752.5,-607.2
753.5,-607.2
754.5,-607.2
755.5,-4423.1
756.5,103857
757.5,111827
758.5,111078
759.5,111650
760.5,30266.2
761.5,-607.2
762.5,-607.2
763.5,-607.2
764.5,-607.2
765.5,-607.2
766.5,-607.2
767.5,-607.2
768.5,-607.2
769.5,-607.2
770.5,-607.2
771.5,-607.2
772.5,-607.2
773.5,-607.2
774.5,-607.2
775.5,-607.2
776.5,-607.2
777.5,-607.2
778.5,-607.2
779.5,-2494.97
780.5,-3548.15
781.5,93480.2
782.5,111361
783.5,111652
784.5,112110
785.5,108203
786.5,-607.2
787.5,-607.2
788.5,-607.2
789.5,-607.2
790.5,-607.2
791.5,-607.2
792.5,-607.2
793.5,-607.2
794.5,-607.2
795.5,-607.2
796.5,-607.2
797.5,-607.2
798.5,-607.2
799.5,-607.2
800.5,-607.2
801.5,-607.2
802.5,-4264.52
803.5,97302.2
804.5,109952
805.5,109579
806.5,109714
807.5,110307
808.5,111147
809.5,111965
810.5,112630
811.5,112800
812.5,112713
813.5,112577
814.5,33359.1
815.5,-607.2
816.5,-607.2
817.5,-607.2
818.5,-607.2
819.5,-607.2
820.5,-607.2
821.5,-607.2
822.5,-607.2
823.5,-607.2
824.5,-607.2
825.5,-607.2
826.5,-3927.92
827.5,76312.5
828.5,111870
829.5,110994
830.5,110623
831.5,110589
832.5,111148
833.5,112012
834.5,112549
835.5,112650
836.5,34483.7
837.5,-607.2
838.5,-607.2
839.5,-607.2
840.5,-607.2
841.5,-607.2
842.5,-607.2
843.5,-607.2
844.5,-607.2
845.5,-607.2
846.5,-607.2
847.5,-607.2
848.5,-607.2
849.5,-607.2
850.5,-3398.4
851.5,-194.355
852.5,63781.3
853.5,111721
854.5,102574
855.5,64061.6
856.5,-835.968
857.5,-2044.85
858.5,-835.968
859.5,-607.2
860.5,-607.2
861.5,-607.2
862.5,-607.2
863.5,-607.2
864.5,-607.2
865.5,-607.2
866.5,-607.2
867.5,-607.2
868.5,-607.2
869.5,-607.2
870.5,-607.2
871.5,-607.2
872.5,-607.2
873.5,-607.2
874.5,-607.2
875.5,-3830.12
876.5,68719.4
877.5,110591
878.5,111499
879.5,110038
880.5,111166
881.5,111581
882.5,110770
883.5,110869
884.5,36953.8
885.5,-607.2
886.5,-607.2
887.5,-607.2
888.5,-607.2
889.5,-607.2
890.5,-607.2
891.5,-607.2
892.5,-607.2
893.5,-607.2
894.5,-607.2
895.5,-607.2
896.5,-607.2
897.5,-607.2
898.5,-607.2
899.5,-607.2
900.5,-2467.89
901.5,25793.5
902.5,111731
903.5,110936
904.5,111938
905.5,7318.27
906.5,-835.968
907.5,-607.2
908.5,-607.2
909.5,-607.2
910.5,-607.2
911.5,-607.2
912.5,-607.2
913.5,-607.2
914.5,-607.2
915.5,-607.2
916.5,-607.2
917.5,-607.2
918.5,-607.2
919.5,-607.2
920.5,-607.2
921.5,-607.2
922.5,-3818.84
923.5,68612.9
924.5,111784
925.5,111840
926.5,111242
927.5,11495
928.5,-607.2
929.5,-607.2
930.5,-607.2
931.5,-607.2
932.5,-607.2
933.5,-607.2
934.5,-607.2
935.5,-607.2
936.5,-607.2
937.5,-607.2
938.5,-607.2
939.5,-607.2
940.5,-607.2
941.5,-607.2
942.5,-607.2
943.5,-607.2
944.5,-607.2
945.5,-607.2
946.5,-1944.72
947.5,-2160.77
948.5,-3443.5
949.5,50092.7
950.5,111263
951.5,110939
952.5,20540.5
953.5,-607.2
954.5,-607.2
955.5,-607.2
956.5,-607.2
957.5,-607.2
958.5,-607.2
959.5,-607.2
960.5,-607.2
961.5,-607.2
962.5,-607.2
963.5,-607.2
964.5,-607.2
965.5,-607.2
966.5,-607.2
967.5,-607.2
968.5,-607.2
969.5,-607.2
970.5,-4817.72
971.5,110160
972.5,109267
973.5,109024
974.5,109436
975.5,110308
976.5,111830
977.5,111665
978.5,111844
979.5,111760
980.5,111634
981.5,58449.3
982.5,-607.2
983.5,-607.2
984.5,-607.2
985.5,-607.2
986.5,-607.2
987.5,-607.2
988.5,-607.2
989.5,-607.2
990.5,-607.2
991.5,-607.2
992.5,-607.2
993.5,-607.2
994.5,-4466.96
995.5,105108
996.5,110481
997.5,110291
998.5,110375
999.5,110761
1000.5,111414
1001.5,111990
1002.5,112992
1003.5,113133
1004.5,112996
1005.5,44423.6
1006.5,-607.2
1007.5,-607.2
1008.5,-607.2
1009.5,-607.2
1010.5,-607.2
1011.5,-607.2
1012.5,-607.2
1013.5,-607.2
1014.5,-607.2
1015.5,-607.2
1016.5,-607.2
1017.5,-2169.32
1018.5,-3345.24
1019.5,77799.2
1020.5,106104
1021.5,85813.5
1022.5,65394.2
1023.5,111956
1024.5,111327
1025.5,37425.8
1026.5,-607.2
1027.5,-607.2
1028.5,-607.2
1029.5,-607.2
1030.5,-607.2
1031.5,-607.2
1032.5,-607.2
1033.5,-607.2
1034.5,-607.2
1035.5,-607.2
1036.5,-607.2
1037.5,-607.2
1038.5,-607.2
1039.5,-607.2
1040.5,-607.2
1041.5,-607.2
1042.5,-3713.44
1043.5,56658.5
1044.5,111568
1045.5,111196
1046.5,110095
1047.5,111177
1048.5,111722
1049.5,110995
1050.5,75631.2
1051.5,-607.2
1052.5,-607.2
1053.5,-607.2
1054.5,-607.2
1055.5,-607.2
1056.5,-607.2
1057.5,-607.2
1058.5,-607.2
1059.5,-607.2
1060.5,-607.2
1061.5,-607.2
1062.5,-607.2
1063.5,-607.2
1064.5,-607.2
1065.5,-607.2
1066.5,-4909.48
1067.5,109560
1068.5,108406
1069.5,108360
1070.5,108018
1071.5,108586
1072.5,109985
1073.5,111467
1074.5,113664
1075.5,113850
1076.5,113793
1077.5,113725
1078.5,113645
1079.5,113542
1080.5,113383
1081.5,5711.54
1082.5,-607.2
1083.5,-607.2
1084.5,-607.2
1085.5,-607.2
1086.5,-607.2
1087.5,-607.2
1088.5,-607.2
1089.5,-607.2
1090.5,-2413.15
1091.5,24627
1092.5,109755
1093.5,108876
1094.5,109152
1095.5,109765
1096.5,110737
1097.5,111911
1098.5,113920
1099.5,114099
1100.5,114016
1101.5,113894
1102.5,86133.7
1103.5,-607.2
1104.5,-607.2
1105.5,-607.2
1106.5,-607.2
1107.5,-607.2
1108.5,-607.2
1109.5,-607.2
1110.5,-607.2
1111.5,-607.2
1112.5,-607.2
1113.5,-607.2
1114.5,-607.2
1115.5,-3785.73
1116.5,58530.3
1117.5,105124
1118.5,88958.6
1119.5,77669.6
1120.5,-835.968
1121.5,-2434.35
1122.5,-835.968
1123.5,-607.2
1124.5,-607.2
1125.5,-607.2
1126.5,-607.2
1127.5,-607.2
1128.5,-607.2
1129.5,-607.2
1130.5,-607.2
1131.5,-607.2
1132.5,-607.2
1133.5,-607.2
1134.5,-607.2
1135.5,-607.2
1136.5,-607.2
1137.5,-607.2
1138.5,-2608.78
1139.5,-3552.29
1140.5,96594.1
1141.5,111753
1142.5,111744
1143.5,108337
1144.5,-835.968
1145.5,-2219.23
1146.5,-835.968
1147.5,-607.2
1148.5,-607.2
1149.5,-607.2
1150.5,-607.2
1151.5,-607.2
1152.5,-607.2
1153.5,-607.2
1154.5,-607.2
1155.5,-607.2
1156.5,-607.2
1157.5,-607.2
1158.5,-607.2
1159.5,-607.2
1160.5,-607.2
1161.5,-607.2
1162.5,-3954.03
1163.5,76596
1164.5,109711
1165.5,109222
1166.5,109207
1167.5,109662
1168.5,110551
1169.5,111743
1170.5,112329
1171.5,112510
1172.5,112436
1173.5,112329
1174.5,112174
1175.5,28035.3
1176.5,-607.2
1177.5,-607.2
1178.5,-607.2
1179.5,-607.2
1180.5,-607.2
1181.5,-607.2
1182.5,-607.2
1183.5,-607.2
1184.5,-607.2
1185.5,-607.2
1186.5,-3829.26
1187.5,68116.8
1188.5,110735
1189.5,110105
1190.5,109884
1191.5,110266
1192.5,111061
1193.5,112050
1194.5,113351
1195.5,113515
1196.5,113412
1197.5,100448
1198.5,-607.2
1199.5,-607.2
1200.5,-607.2
1201.5,-607.2
1202.5,-607.2
1203.5,-607.2
1204.5,-607.2
1205.5,-607.2
1206.5,-607.2
1207.5,-607.2
1208.5,-607.2
1209.5,-2162.82
1210.5,-3843.58
1211.5,106629
1212.5,111797
1213.5,110684
1214.5,110286
1215.5,110893
1216.5,111796
1217.5,111980
1218.5,112631
1219.5,112729
1220.5,36944.9
1221.5,-607.2
1222.5,-607.2
1223.5,-607.2
1224.5,-607.2
1225.5,-607.2
1226.5,-607.2
1227.5,-607.2
1228.5,-607.2
1229.5,-607.2
1230.5,-607.2
1231.5,-607.2
1232.5,-607.2
1233.5,-3083.49
1234.5,42351.4
1235.5,109958
1236.5,108955
1237.5,108438
1238.5,108335
1239.5,109000
1240.5,110074
1241.5,111394
1242.5,113985
1243.5,114184
1244.5,114131
1245.5,114061
1246.5,113969
1247.5,113850
1248.5,91498.9
1249.5,-607.2
1250.5,-607.2
1251.5,-607.2
1252.5,-607.2
1253.5,-607.2
1254.5,-607.2
1255.5,-607.2
1256.5,-607.2
1257.5,-2025.41
1258.5,-1862.98
1259.5,-835.968
1260.5,-1723.95
1261.5,-1584.56
1262.5,-2539.34
1263.5,-607.2
1264.5,-2094.89
1265.5,-835.968
1266.5,-607.2
1267.5,-607.2
1268.5,-607.2
1269.5,-607.2
1270.5,-607.2
1271.5,-607.2
1272.5,-607.2
1273.5,-607.2
1274.5,-607.2
1275.5,-607.2
1276.5,-607.2
1277.5,-607.2
1278.5,-607.2
1279.5,-607.2
1280.5,-607.2
1281.5,-607.2
1282.5,-2167.34
1283.5,-3780.96
1284.5,102855
1285.5,102448
1286.5,111652
1287.5,111972
1288.5,110663
1289.5,73899.3
1290.5,-835.968
1291.5,-607.2
1292.5,-607.2
1293.5,-607.2
1294.5,-607.2
1295.5,-607.2
1296.5,-607.2
1297.5,-607.2
1298.5,-607.2
1299.5,-607.2
1300.5,-607.2
1301.5,-607.2
1302.5,-607.2
1303.5,-607.2
1304.5,-607.2
1305.5,-2012.69
1306.5,-2755.92
1307.5,-5202.43
1308.5,110501
1309.5,110160
1310.5,110160
1311.5,110467
1312.5,111170
1313.5,112052
1314.5,111123
1315.5,111265
1316.5,111133
1317.5,54968.5
1318.5,-607.2
1319.5,-607.2
1320.5,-607.2
1321.5,-607.2
1322.5,-607.2
1323.5,-607.2
1324.5,-607.2
1325.5,-607.2
1326.5,-607.2
1327.5,-607.2
1328.5,-607.2
1329.5,-3369.33
1330.5,48231
1331.5,110155
1332.5,109183
1333.5,108646
1334.5,108633
1335.5,109149
1336.5,110122
1337.5,111399
1338.5,113802
1339.5,113988
1340.5,113932
1341.5,113870
1342.5,113791
1343.5,113667
1344.5,62461.8
1345.5,-607.2
1346.5,-607.2
1347.5,-607.2
1348.5,-607.2
1349.5,-607.2
1350.5,-607.2
1351.5,-607.2
1352.5,-607.2
1353.5,-3695.51
1354.5,57817.9
1355.5,109725
1356.5,108710
1357.5,108162
1358.5,108202
1359.5,108788
1360.5,109853
1361.5,111346
1362.5,112424
1363.5,114272
1364.5,114455
1365.5,114403
1366.5,114339
1367.5,114254
1368.5,114135
1369.5,97439.8
1370.5,-607.2
1371.5,-607.2
1372.5,-607.2
1373.5,-607.2
1374.5,-607.2
1375.5,-607.2
1376.5,-607.2
1377.5,-3187.53
1378.5,810.236
1379.5,109716
1380.5,108693
1381.5,108137
1382.5,108172
1383.5,108785
1384.5,109950
1385.5,111259
1386.5,112260
1387.5,114320
1388.5,114499
1389.5,114435
1390.5,114354
1391.5,114253
1392.5,114110
1393.5,44136.5
1394.5,-607.2
1395.5,-607.2
1396.5,-607.2
1397.5,-607.2
1398.5,-607.2
1399.5,-607.2
1400.5,-607.2
1401.5,-607.2
1402.5,-4308.46
1403.5,99019.1
1404.5,110592
1405.5,109969
1406.5,110585
1407.5,110367
1408.5,111446
1409.5,112046
1410.5,113746
1411.5,113900
1412.5,113777
1413.5,69317.5
1414.5,-607.2
1415.5,-607.2
1416.5,-607.2
1417.5,-607.2
1418.5,-607.2
1419.5,-607.2
1420.5,-607.2
1421.5,-607.2
1422.5,-607.2
1423.5,-607.2
1424.5,-607.2
1425.5,-2799.84
1426.5,16737.6
1427.5,111265
1428.5,111141
1429.5,110695
1430.5,110481
1431.5,109670
1432.5,110387
1433.5,111441
1434.5,111944
1435.5,113442
1436.5,113599
1437.5,113489
1438.5,57857.7
1439.5,-607.2
1440.5,-607.2
1441.5,-607.2
1442.5,-607.2
1443.5,-607.2
1444.5,-607.2
1445.5,-607.2
1446.5,-607.2
1447.5,-607.2
1448.5,-607.2
1449.5,-3792.87
1450.5,64527.8
1451.5,108815
1452.5,107687
1453.5,107113
1454.5,107210
1455.5,107937
1456.5,109188
1457.5,110745
1458.5,112182
1459.5,114319
1460.5,114526
1461.5,114495
1462.5,114452
1463.5,114394
1464.5,114323
1465.5,114230
1466.5,114098
1467.5,62353.6
1468.5,-607.2
1469.5,-607.2
1470.5,-607.2
1471.5,-607.2
1472.5,-607.2
1473.5,-3592
1474.5,52108.4
1475.5,109659
1476.5,108687
1477.5,109078
1478.5,109113
1479.5,109733
1480.5,110772
1481.5,111158
1482.5,112219
1483.5,114393
1484.5,114586
1485.5,114542
1486.5,114480
1487.5,114392
1488.5,114271
1489.5,112896
1490.5,-607.2
1491.5,-607.2
1492.5,-607.2
1493.5,-607.2
1494.5,-607.2
1495.5,-607.2
1496.5,-607.2
1497.5,-3813.65
1498.5,66706.6
1499.5,110253
1500.5,110524
1501.5,110104
1502.5,110113
1503.5,110657
1504.5,111587
1505.5,111752
1506.5,114150
1507.5,114343
1508.5,114280
1509.5,114206
1510.5,114094
1511.5,59311.8
1512.5,-607.2
1513.5,-607.2
1514.5,-607.2
1515.5,-607.2
1516.5,-607.2
1517.5,-607.2
1518.5,-607.2
1519.5,-607.2
1520.5,-607.2
1521.5,-2475.03
1522.5,-973.24
1523.5,111951
1524.5,74495.3
1525.5,111845
1526.5,79095.7
1527.5,111691
1528.5,111892
1529.5,111673
1530.5,36528.6
1531.5,-607.2
1532.5,-607.2
1533.5,-607.2
1534.5,-607.2
1535.5,-607.2
1536.5,-607.2
1537.5,-607.2
1538.5,-607.2
1539.5,-607.2
1540.5,-607.2
1541.5,-607.2
1542.5,-607.2
1543.5,-607.2
1544.5,-607.2
1545.5,-3605.69
1546.5,53151.8
1547.5,110616
1548.5,110807
1549.5,110415
1550.5,110457
1551.5,110913
1552.5,111890
1553.5,112653
1554.5,113088
1555.5,113280
1556.5,113199
1557.5,113065
1558.5,71315.8
1559.5,-607.2
1560.5,-607.2
1561.5,-607.2
1562.5,-607.2
1563.5,-607.2
1564.5,-607.2
1565.5,-607.2
1566.5,-607.2
1567.5,-607.2
1568.5,-607.2
1569.5,-3183.51
1570.5,5780.86
1571.5,111833
1572.5,111594
1573.5,23353.2
1574.5,-2002.55
1575.5,-2387.6
1576.5,-835.968
1577.5,-607.2
1578.5,-607.2
1579.5,-607.2
1580.5,-607.2
1581.5,-607.2
1582.5,-607.2
1583.5,-607.2
1584.5,-607.2
1585.5,-607.2
1586.5,-607.2
1587.5,-607.2
1588.5,-607.2
1589.5,-607.2
1590.5,-607.2
1591.5,-607.2
1592.5,-607.2
1593.5,-607.2
1594.5,-3720.1
1595.5,-835.968
1596.5,-607.2
1597.5,-607.2
1598.5,-3673.92
1599.5,27903.9
1600.5,-835.968
1601.5,-607.2
1602.5,-607.2
1603.5,-607.2
1604.5,-607.2
1605.5,-607.2
1606.5,-607.2
1607.5,-607.2
1608.5,-607.2
1609.5,-607.2
1610.5,-607.2
1611.5,-607.2
1612.5,-607.2
1613.5,-607.2
1614.5,-607.2
1615.5,-607.2
1616.5,-607.2
1617.5,-3826.93
1618.5,68245.2
1619.5,110073
1620.5,109145
1621.5,108613
1622.5,108599
1623.5,109117
1624.5,110041
1625.5,111216
1626.5,111770
1627.5,112516
1628.5,112701
1629.5,112648
1630.5,112579
1631.5,112489
1632.5,112359
1633.5,68018.3
1634.5,-607.2
1635.5,-607.2
1636.5,-607.2
1637.5,-607.2
1638.5,-607.2
1639.5,-607.2
1640.5,-607.2
1641.5,-4652.04
1642.5,109027
1643.5,108821
1644.5,107824
1645.5,107326
1646.5,107457
1647.5,108177
1648.5,109209
1649.5,110843
1650.5,112214
1651.5,114325
1652.5,114530
1653.5,114499
1654.5,114456
1655.5,114398
1656.5,114325
1657.5,114232
1658.5,114102
1659.5,55866.1
1660.5,-607.2
1661.5,-607.2
1662.5,-607.2
1663.5,-607.2
1664.5,-607.2
1665.5,-607.2
1666.5,-607.2
1667.5,-607.2
1668.5,-5208.17
1669.5,110901
1670.5,111018
1671.5,111413
1672.5,111995
1673.5,111663
1674.5,112653
1675.5,7186.55
1676.5,-607.2
1677.5,-607.2
1678.5,-607.2
1679.5,-607.2
1680.5,-607.2
1681.5,-607.2
1682.5,-607.2
1683.5,-607.2
1684.5,-607.2
1685.5,-607.2
1686.5,-607.2
1687.5,-607.2
1688.5,-607.2
1689.5,-607.2
1690.5,-607.2
1691.5,-1859.96
1692.5,-3539.78
1693.5,61754
1694.5,-835.968
1695.5,-3795.46
1696.5,65228.7
1697.5,111652
1698.5,110267
1699.5,30559.1
1700.5,-607.2
1701.5,-607.2
1702.5,-607.2
1703.5,-607.2
1704.5,-607.2
1705.5,-607.2
1706.5,-607.2
1707.5,-607.2
1708.5,-607.2
1709.5,-607.2
1710.5,-607.2
1711.5,-607.2
1712.5,-607.2
1713.5,-3316.95
1714.5,47379
1715.5,109083
1716.5,108112
1717.5,107640
1718.5,107781
1719.5,108464
1720.5,109630
1721.5,110926
1722.5,112056
1723.5,113777
1724.5,113970
1725.5,113917
1726.5,113854
1727.5,113785
1728.5,113708
1729.5,113605
1730.5,98950.2
1731.5,-607.2
1732.5,-607.2
1733.5,-607.2
1734.5,-607.2
1735.5,-607.2
1736.5,-607.2
1737.5,-4242.73
1738.5,95184.1
1739.5,110035
1740.5,110520
1741.5,109458
1742.5,111409
1743.5,112004
1744.5,113649
1745.5,111319
1746.5,113432
1747.5,12253.9
1748.5,-607.2
1749.5,-607.2
1750.5,-607.2
1751.5,-607.2
1752.5,-607.2
1753.5,-607.2
1754.5,-607.2
1755.5,-607.2
1756.5,-607.2
1757.5,-607.2
1758.5,-607.2
1759.5,-607.2
1760.5,-607.2
1761.5,-3926.6
1762.5,54374.8
1763.5,111855
1764.5,110873
1765.5,110539
1766.5,109553
1767.5,111515
1768.5,111487
1769.5,111709
1770.5,111684
1771.5,112688
1772.5,112792
1773.5,50240.1
1774.5,-607.2
1775.5,-607.2
1776.5,-607.2
1777.5,-607.2
1778.5,-607.2
1779.5,-607.2
1780.5,-607.2
1781.5,-607.2
1782.5,-607.2
1783.5,-607.2
1784.5,-607.2
1785.5,-4261.17
1786.5,96357.9
1787.5,109667
1788.5,109627
1789.5,109104
1790.5,109114
1791.5,109622
1792.5,110566
1793.5,111813
1794.5,112045
1795.5,113995
1796.5,114194
1797.5,114169
1798.5,114134
1799.5,114072
1800.5,113975
1801.5,113824
1802.5,15486
1803.5,-607.2
1804.5,-607.2
1805.5,-607.2
1806.5,-607.2
1807.5,-607.2
1808.5,-607.2
1809.5,-4062.28
1810.5,84079.4
1811.5,110289
1812.5,110497
1813.5,110180
1814.5,110317
1815.5,110877
1816.5,111748
1817.5,112737
1818.5,114019
1819.5,114219
1820.5,114157
1821.5,114065
1822.5,113912
1823.5,10918
1824.5,-607.2
1825.5,-607.2
1826.5,-607.2
1827.5,-607.2
1828.5,-607.2
1829.5,-607.2
1830.5,-607.2
1831.5,-607.2
1832.5,-607.2
1833.5,-3673.85
1834.5,57349.6
1835.5,111613
1836.5,110901
1837.5,110515
1838.5,110514
1839.5,110904
1840.5,111630
1841.5,112551
1842.5,114572
1843.5,113825
1844.5,113743
1845.5,113610
1846.5,16264.2
1847.5,-607.2
1848.5,-607.2
1849.5,-607.2
1850.5,-607.2
1851.5,-607.2
1852.5,-607.2
1853.5,-607.2
1854.5,-607.2
1855.5,-607.2
1856.5,-607.2
1857.5,-3753.39
1858.5,63254.4
1859.5,111422
1860.5,110627
1861.5,110478
1862.5,110443
1863.5,111086
1864.5,111385
1865.5,112303
1866.5,114467
1867.5,113798
1868.5,113719
1869.5,113607
1870.5,55338.7
1871.5,-607.2
1872.5,-607.2
1873.5,-607.2
1874.5,-607.2
1875.5,-607.2
1876.5,-607.2
1877.5,-607.2
1878.5,-607.2
1879.5,-607.2
1880.5,-607.2
1881.5,-3916.62
1882.5,75111.8
1883.5,111846
1884.5,111177
1885.5,111839
1886.5,110611
1887.5,110374
1888.5,111142
1889.5,111925
1890.5,112674
1891.5,114368
1892.5,113623
1893.5,113530
1894.5,90860.7
1895.5,-607.2
1896.5,-607.2
1897.5,-607.2
1898.5,-607.2
1899.5,-607.2
1900.5,-607.2
1901.5,-607.2
1902.5,-607.2
1903.5,-607.2
1904.5,-607.2
1905.5,-3883.64
1906.5,73014.4
1907.5,112166
1908.5,111339
1909.5,111130
1910.5,112353
1911.5,111675
1912.5,112047
1913.5,111952
1914.5,112188
1915.5,54166.4
1916.5,-607.2
1917.5,-607.2
1918.5,-607.2
1919.5,-607.2
1920.5,-607.2
1921.5,-607.2
1922.5,-607.2
1923.5,-607.2
1924.5,-607.2
1925.5,-607.2
1926.5,-607.2
1927.5,-607.2
1928.5,-1807.22
1929.5,-3063.18
1930.5,-3918.41
1931.5,75001.3
1932.5,111096
1933.5,111844
1934.5,112146
1935.5,110645
1936.5,111429
1937.5,112142
1938.5,112366
1939.5,112549
1940.5,112668
1941.5,63364.5
1942.5,-607.2
1943.5,-607.2
1944.5,-607.2
1945.5,-607.2
1946.5,-607.2
1947.5,-607.2
1948.5,-607.2
1949.5,-607.2
1950.5,-607.2
1951.5,-607.2
1952.5,-607.2
1953.5,-2227.79
1954.5,14029.4
1955.5,-835.968
1956.5,-3674.74
1957.5,21607.6
1958.5,100451
1959.5,86765.8
1960.5,72003.7
1961.5,57863.6
1962.5,-835.968
1963.5,-607.2
1964.5,-607.2
1965.5,-607.2
1966.5,-607.2
1967.5,-607.2
1968.5,-607.2
1969.5,-607.2
1970.5,-607.2
1971.5,-607.2
1972.5,-607.2
1973.5,-607.2
1974.5,-607.2
1975.5,-607.2
1976.5,-607.2
1977.5,-3763.85
1978.5,64475.6
1979.5,111719
1980.5,111314
1981.5,111145
1982.5,110754
1983.5,111716
1984.5,112180
1985.5,111106
1986.5,109887
1987.5,58844
1988.5,-607.2
1989.5,-607.2
1990.5,-607.2
1991.5,-607.2
1992.5,-607.2
1993.5,-607.2
1994.5,-607.2
1995.5,-607.2
1996.5,-607.2
1997.5,-607.2
1998.5,-607.2
1999.5,-607.2
2000.5,-607.2
2001.5,-2323.72
2002.5,-3856.95
2003.5,111936
2004.5,112687
2005.5,112353
2006.5,112426
2007.5,112566
2008.5,112651
2009.5,110874
2010.5,16504.8
2011.5,-607.2
2012.5,-607.2
2013.5,-607.2
2014.5,-607.2
2015.5,-607.2
2016.5,-607.2
2017.5,-607.2
2018.5,-607.2
2019.5,-607.2
2020.5,-607.2
2021.5,-607.2
2022.5,-607.2
2023.5,-607.2
2024.5,-607.2
2025.5,-3246.73
2026.5,39317.6
2027.5,111489
2028.5,111045
2029.5,110860
2030.5,112150
2031.5,112128
2032.5,111690
2033.5,111367
2034.5,110469
2035.5,102300
2036.5,-607.2
2037.5,-607.2
2038.5,-607.2
2039.5,-607.2
2040.5,-607.2
2041.5,-607.2
2042.5,-607.2
2043.5,-607.2
2044.5,-607.2
2045.5,-607.2
2046.5,-607.2
2047.5,-607.2
2048.5,-607.2
2049.5,-1806.11
2050.5,-3682.05
2051.5,81944.7
2052.5,111939
2053.5,111746
2054.5,112750
2055.5,112402
2056.5,97935.8
2057.5,-835.968
2058.5,-607.2
2059.5,-607.2
2060.5,-607.2
2061.5,-607.2
2062.5,-607.2
2063.5,-607.2
2064.5,-607.2
2065.5,-607.2
2066.5,-607.2
2067.5,-607.2
2068.5,-607.2
2069.5,-607.2
2070.5,-607.2
2071.5,-607.2
2072.5,-607.2
2073.5,-3684.58
2074.5,58690.6
2075.5,112028
2076.5,111447
2077.5,110926
2078.5,111261
2079.5,111066
2080.5,111617
2081.5,112347
2082.5,112221
2083.5,111630
2084.5,111780
2085.5,111662
2086.5,46187.2
2087.5,-607.2
2088.5,-607.2
2089.5,-607.2
2090.5,-607.2
2091.5,-607.2
2092.5,-607.2
2093.5,-607.2
2094.5,-607.2
2095.5,-607.2
2096.5,-607.2
2097.5,-607.2
2098.5,-607.2
2099.5,-3464.91
2100.5,6697.44
2101.5,112095
2102.5,112434
2103.5,112593
2104.5,111797
2105.5,1833.47
2106.5,-835.968
2107.5,-607.2
2108.5,-607.2
2109.5,-607.2
2110.5,-607.2
2111.5,-607.2
2112.5,-607.2
2113.5,-607.2
2114.5,-607.2
2115.5,-607.2
2116.5,-607.2
2117.5,-607.2
2118.5,-607.2
2119.5,-607.2
2120.5,-607.2
2121.5,-2555.08
2122.5,622.614
2123.5,112588
2124.5,112084
2125.5,111756
2126.5,111723
2127.5,111971
2128.5,112445
2129.5,111946
2130.5,110770
2131.5,58334.1
2132.5,-607.2
2133.5,-607.2
2134.5,-607.2
2135.5,-607.2
2136.5,-607.2
2137.5,-607.2
2138.5,-607.2
2139.5,-607.2
2140.5,-607.2
2141.5,-607.2
2142.5,-607.2
2143.5,-607.2
2144.5,-607.2
2145.5,-3398.39
2146.5,-1072.67
2147.5,-4048.89
2148.5,84058
2149.5,110923
2150.5,110275
2151.5,110554
2152.5,111284
2153.5,111330
2154.5,111785
2155.5,112773
2156.5,112940
2157.5,112838
2158.5,112167
2159.5,-607.2
2160.5,-607.2
2161.5,-607.2
2162.5,-607.2
2163.5,-607.2
2164.5,-607.2
2165.5,-607.2
2166.5,-607.2
2167.5,-607.2
2168.5,-607.2
2169.5,-2042.29
2170.5,-2317.15
2171.5,37887.1
2172.5,112205
2173.5,111831
2174.5,111607
2175.5,111487
2176.5,110683
2177.5,-835.968
2178.5,-607.2
2179.5,-607.2
2180.5,-607.2
2181.5,-607.2
2182.5,-607.2
2183.5,-607.2
2184.5,-607.2
2185.5,-607.2
2186.5,-607.2
2187.5,-607.2
2188.5,-607.2
2189.5,-607.2
2190.5,-607.2
2191.5,-607.2
2192.5,-2167.4
2193.5,-3397.01
2194.5,-1258.85
2195.5,111996
2196.5,111447
2197.5,112044
2198.5,111713
2199.5,110765
2200.5,110866
2201.5,111795
2202.5,112097
2203.5,112372
2204.5,112649
2205.5,49813.5
2206.5,-607.2
2207.5,-607.2
2208.5,-607.2
2209.5,-607.2
2210.5,-607.2
2211.5,-607.2
2212.5,-607.2
2213.5,-607.2
2214.5,-607.2
2215.5,-607.2
2216.5,-2324.63
2217.5,-2251
2218.5,41418.8
2219.5,112211
2220.5,111864
2221.5,111158
2222.5,110599
2223.5,111207
2224.5,111155
2225.5,111884
2226.5,111984
2227.5,97608.5
2228.5,-607.2
2229.5,-607.2
2230.5,-607.2
2231.5,-607.2
2232.5,-607.2
2233.5,-607.2
2234.5,-607.2
2235.5,-607.2
2236.5,-607.2
2237.5,-607.2
2238.5,-607.2
2239.5,-607.2
2240.5,-607.2
2241.5,-2561.71
2242.5,-3734.74
2243.5,109678
2244.5,111981
2245.5,111941
2246.5,110976
2247.5,101925
2248.5,-835.968
2249.5,-3817.2
2250.5,-835.968
2251.5,-607.2
2252.5,-607.2
2253.5,-607.2
2254.5,-607.2
2255.5,-607.2
2256.5,-607.2
2257.5,-607.2
2258.5,-607.2
2259.5,-607.2
2260.5,-607.2
2261.5,-607.2
2262.5,-607.2
2263.5,-607.2
2264.5,-607.2
2265.5,-3075.44
2266.5,28368.3
2267.5,112348
2268.5,112276
2269.5,111889
2270.5,112068
2271.5,112223
2272.5,109773
2273.5,111753
2274.5,9272.49
2275.5,-607.2
2276.5,-607.2
2277.5,-607.2
2278.5,-607.2
2279.5,-607.2
2280.5,-607.2
2281.5,-607.2
2282.5,-607.2
2283.5,-607.2
2284.5,-607.2
2285.5,-607.2
2286.5,-607.2
2287.5,-607.2
2288.5,-2828.13
2289.5,33999.1
2290.5,111315
2291.5,110401
2292.5,109519
2293.5,109037
2294.5,108941
2295.5,109324
2296.5,110102
2297.5,111179
2298.5,112485
2299.5,113929
2300.5,114232
2301.5,114244
2302.5,114272
2303.5,113286
2304.5,113210
2305.5,113079
2306.5,43339
2307.5,-607.2
2308.5,-607.2
2309.5,-607.2
2310.5,-607.2
2311.5,-607.2
2312.5,-3498.42
2313.5,46618.8
2314.5,111770
2315.5,111185
2316.5,110474
2317.5,110544
2318.5,110376
2319.5,109269
2320.5,110013
2321.5,111248
2322.5,112579
2323.5,114556
2324.5,114899
2325.5,114879
2326.5,114801
2327.5,114625
2328.5,-607.2
2329.5,-607.2
2330.5,-607.2
2331.5,-607.2
2332.5,-607.2
2333.5,-607.2
2334.5,-607.2
2335.5,-607.2
2336.5,-3385.12
2337.5,48451.8
2338.5,110957
2339.5,110314
2340.5,109072
2341.5,109366
2342.5,108834
2343.5,111779
2344.5,111836
2345.5,111080
2346.5,112340
2347.5,114594
2348.5,114611
2349.5,114597
2350.5,114627
2351.5,114676
2352.5,52454.1
2353.5,-607.2
2354.5,-607.2
2355.5,-607.2
2356.5,-607.2
2357.5,-607.2
2358.5,-607.2
2359.5,-607.2
2360.5,-1951.05
2361.5,1093.24
2362.5,112101
2363.5,111174
2364.5,110892
2365.5,111431
2366.5,111588
2367.5,111188
2368.5,110351
2369.5,111847
2370.5,113204
2371.5,113660
2372.5,30222.1
2373.5,-607.2
2374.5,-607.2
2375.5,-607.2
2376.5,-607.2
2377.5,-607.2
2378.5,-607.2
2379.5,-607.2
2380.5,-607.2
2381.5,-607.2
2382.5,-607.2
2383.5,-607.2
2384.5,-3742.8
2385.5,62378.5
2386.5,111444
2387.5,111391
2388.5,109622
2389.5,109945
2390.5,110409
2391.5,111069
2392.5,110715
2393.5,111764
2394.5,112956
2395.5,113308
2396.5,3603.41
2397.5,-607.2
2398.5,-607.2
2399.5,-607.2
2400.5,-607.2
2401.5,-607.2
2402.5,-607.2
2403.5,-607.2
2404.5,-607.2
2405.5,-607.2
2406.5,-607.2
2407.5,-607.2
2408.5,-1841.86
2409.5,-3605.82
2410.5,82500.9
2411.5,111617
2412.5,112244
2413.5,111730
2414.5,110962
2415.5,111931
2416.5,112368
2417.5,111938
2418.5,112153
2419.5,27182.6
2420.5,-607.2
2421.5,-607.2
2422.5,-607.2
2423.5,-607.2
2424.5,-607.2
2425.5,-607.2
2426.5,-607.2
2427.5,-607.2
2428.5,-607.2
2429.5,-607.2
2430.5,-607.2
2431.5,-607.2
2432.5,-3302.95
2433.5,46516.1
2434.5,111346
2435.5,111795
2436.5,109944
2437.5,110732
2438.5,109487
2439.5,109578
2440.5,110247
2441.5,111169
2442.5,112362
2443.5,114242
2444.5,114588
2445.5,114599
2446.5,113654
2447.5,113572
2448.5,113435
2449.5,24245.6
2450.5,-607.2
2451.5,-607.2
2452.5,-607.2
2453.5,-607.2
2454.5,-607.2
2455.5,-607.2
2456.5,-3522.05
2457.5,51446.3
2458.5,110846
2459.5,109848
2460.5,109245
2461.5,109647
2462.5,110684
2463.5,111350
2464.5,111037
2465.5,111698
2466.5,114496
2467.5,114766
2468.5,114931
2469.5,114928
2470.5,113911
2471.5,69339.1
2472.5,-607.2
2473.5,-607.2
2474.5,-607.2
2475.5,-607.2
2476.5,-607.2
2477.5,-607.2
2478.5,-607.2
2479.5,-607.2
2480.5,-607.2
2481.5,-3297.78
2482.5,9294.85
2483.5,-835.968
2484.5,-3564.29
2485.5,-898.009
2486.5,-2026.31
2487.5,-835.968
2488.5,-607.2
2489.5,-2962.26
2490.5,-835.968
2491.5,-607.2
2492.5,-607.2
2493.5,-607.2
2494.5,-607.2
2495.5,-607.2
2496.5,-607.2
2497.5,-607.2
2498.5,-607.2
2499.5,-607.2
2500.5,-607.2
2501.5,-607.2
2502.5,-607.2
2503.5,-607.2
2504.5,-2414.35
2505.5,-1559.77
2506.5,1384.08
2507.5,-835.968
2508.5,-4866.2
2509.5,110587
2510.5,111628
2511.5,110291
2512.5,110980
2513.5,112349
2514.5,112015
2515.5,112299
2516.5,78296.1
2517.5,-607.2
2518.5,-607.2
2519.5,-607.2
2520.5,-607.2
2521.5,-607.2
2522.5,-607.2
2523.5,-607.2
2524.5,-607.2
2525.5,-607.2
2526.5,-607.2
2527.5,-607.2
2528.5,-607.2
2529.5,-2231.62
2530.5,25290.8
2531.5,109820
2532.5,111243
2533.5,111699
2534.5,110911
2535.5,111692
2536.5,110828
2537.5,111636
2538.5,111782
2539.5,113016
2540.5,113180
2541.5,113071
2542.5,62166.6
2543.5,-607.2
2544.5,-607.2
2545.5,-607.2
2546.5,-607.2
2547.5,-607.2
2548.5,-607.2
2549.5,-607.2
2550.5,-607.2
2551.5,-607.2
2552.5,-4223.91
2553.5,94597.9
2554.5,110106
2555.5,108838
2556.5,108028
2557.5,107829
2558.5,108157
2559.5,108575
2560.5,109435
2561.5,110623
2562.5,112083
2563.5,114858
2564.5,115229
2565.5,115317
2566.5,114401
2567.5,114362
2568.5,114310
2569.5,114244
2570.5,114161
2571.5,114045
2572.5,68179.9
2573.5,-607.2
2574.5,-607.2
2575.5,-607.2
2576.5,-3640.94
2577.5,43362.9
2578.5,111843
2579.5,111792
2580.5,111308
2581.5,110850
2582.5,110484
2583.5,110887
2584.5,111474
2585.5,112079
2586.5,113916
2587.5,114164
2588.5,83121.9
2589.5,-607.2
2590.5,-607.2
2591.5,-607.2
2592.5,-607.2
2593.5,-607.2
2594.5,-607.2
2595.5,-607.2
2596.5,-607.2
2597.5,-607.2
2598.5,-607.2
2599.5,-607.2
2600.5,-1956.04
2601.5,-3393.36
2602.5,64991.9
2603.5,112050
2604.5,111550
2605.5,111207
2606.5,110878
2607.5,110858
2608.5,111210
2609.5,112080
2610.5,113729
2611.5,112511
2612.5,113605
2613.5,14876.6
2614.5,-607.2
2615.5,-607.2
2616.5,-607.2
2617.5,-607.2
2618.5,-607.2
2619.5,-607.2
2620.5,-607.2
2621.5,-607.2
2622.5,-607.2
2623.5,-607.2
2624.5,-3023.37
2625.5,37376.5
2626.5,111596
2627.5,109370
2628.5,108697
2629.5,108355
2630.5,108439
2631.5,108886
2632.5,109723
2633.5,110812
2634.5,112026
2635.5,114717
2636.5,114859
2637.5,114875
2638.5,114905
2639.5,114941
2640.5,114943
2641.5,113923
2642.5,95899
2643.5,-607.2
2644.5,-607.2
2645.5,-607.2
2646.5,-607.2
2647.5,-607.2
2648.5,-3859.77
2649.5,70559
2650.5,110869
2651.5,109809
2652.5,109153
2653.5,109468
2654.5,111334
2655.5,111706
2656.5,112124
2657.5,112199
2658.5,114213
2659.5,114677
2660.5,114527
2661.5,92536.4
2662.5,-607.2
2663.5,-607.2
2664.5,-607.2
2665.5,-607.2
2666.5,-607.2
2667.5,-607.2
2668.5,-607.2
2669.5,-607.2
2670.5,-607.2
2671.5,-607.2
2672.5,-4224.97
2673.5,94405.8
2674.5,109901
2675.5,108637
2676.5,107742
2677.5,107328
2678.5,107455
2679.5,107989
2680.5,109062
2681.5,110187
2682.5,112011
2683.5,114724
2684.5,115056
2685.5,115146
2686.5,115188
2687.5,115196
2688.5,115156
2689.5,115082
2690.5,114983
2691.5,114832
2692.5,5982.08
2693.5,-607.2
2694.5,-607.2
2695.5,-607.2
2696.5,-3551.99
2697.5,45401.6
2698.5,110744
2699.5,108284
2700.5,107501
2701.5,107135
2702.5,107274
2703.5,107874
2704.5,108821
2705.5,109999
2706.5,111367
2707.5,114677
2708.5,115296
2709.5,115166
2710.5,115207
2711.5,115177
2712.5,115059
2713.5,114983
2714.5,114983
2715.5,29721.4
2716.5,-607.2
2717.5,-607.2
2718.5,-607.2
2719.5,-607.2
2720.5,-3746.87
2721.5,62611.5
2722.5,111268
2723.5,110330
2724.5,110321
2725.5,110160
2726.5,111039
2727.5,110572
2728.5,113651
2729.5,113873
2730.5,113996
2731.5,41830.9
2732.5,-607.2
2733.5,-607.2
2734.5,-607.2
2735.5,-607.2
2736.5,-607.2
2737.5,-607.2
2738.5,-607.2
2739.5,-607.2
2740.5,-607.2
2741.5,-607.2
2742.5,-607.2
2743.5,-607.2
2744.5,-2635.33
2745.5,-1635.08
2746.5,-1354.76
2747.5,-607.2
2748.5,-2069.65
2749.5,-3890.64
2750.5,75023.7
2751.5,110862
2752.5,110363
2753.5,111401
2754.5,112108
2755.5,113082
2756.5,113337
2757.5,29818.5
2758.5,-607.2
2759.5,-607.2
2760.5,-607.2
2761.5,-607.2
2762.5,-607.2
2763.5,-607.2
2764.5,-607.2
2765.5,-607.2
2766.5,-607.2
2767.5,-607.2
2768.5,-4476.41
2769.5,105188
2770.5,109804
2771.5,108615
2772.5,107928
2773.5,107528
2774.5,107645
2775.5,107992
2776.5,108977
2777.5,110225
2778.5,111841
2779.5,114733
2780.5,114993
2781.5,115086
2782.5,115147
2783.5,115184
2784.5,115176
2785.5,114194
2786.5,114113
2787.5,114930
2788.5,114761
2789.5,-607.2
2790.5,-607.2
2791.5,-607.2
2792.5,-4153.68
2793.5,89831.6
2794.5,110104
2795.5,109124
2796.5,108399
2797.5,107920
2798.5,107987
2799.5,108457
2800.5,109406
2801.5,110402
2802.5,111543
2803.5,114659
2804.5,115048
2805.5,115147
2806.5,115198
2807.5,115222
2808.5,115210
2809.5,115139
2810.5,71565
2811.5,-607.2
2812.5,-607.2
2813.5,-607.2
2814.5,-607.2
2815.5,-607.2
2816.5,-3697.84
2817.5,58679.3
2818.5,110782
2819.5,109587
2820.5,108757
2821.5,108234
2822.5,108119
2823.5,108583
2824.5,109837
2825.5,110621
2826.5,111590
2827.5,114342
2828.5,114876
2829.5,114989
2830.5,114782
2831.5,114867
2832.5,114828
2833.5,52913.7
2834.5,-607.2
2835.5,-607.2
2836.5,-607.2
2837.5,-607.2
2838.5,-607.2
2839.5,-607.2
2840.5,-3540.35
2841.5,44533.8
2842.5,69441.7
2843.5,-835.968
2844.5,-607.2
2845.5,-2737.65
2846.5,-1530.38
2847.5,-835.968
2848.5,-2014.68
2849.5,-835.968
2850.5,-2359.07
2851.5,-835.968
2852.5,-607.2
2853.5,-607.2
2854.5,-607.2
2855.5,-607.2
2856.5,-607.2
2857.5,-607.2
2858.5,-607.2
2859.5,-607.2
2860.5,-607.2
2861.5,-607.2
2862.5,-607.2
2863.5,-607.2
2864.5,-2522.83
2865.5,-3630.49
2866.5,47816.7
2867.5,94550.6
2868.5,57743.7
2869.5,95241.3
2870.5,-835.968
2871.5,-607.2
2872.5,-607.2
2873.5,-607.2
2874.5,-607.2
2875.5,-607.2
2876.5,-607.2
2877.5,-607.2
2878.5,-607.2
2879.5,-607.2
2880.5,-607.2
2881.5,-607.2
2882.5,-607.2
2883.5,-607.2
2884.5,-607.2
2885.5,-607.2
2886.5,-607.2
2887.5,-607.2
2888.5,-4334.96
2889.5,100436
2890.5,109811
2891.5,108664
2892.5,107955
2893.5,107578
2894.5,107632
2895.5,108081
2896.5,108964
2897.5,110081
2898.5,111328
2899.5,113166
2900.5,113751
2901.5,113647
2902.5,113736
2903.5,113768
2904.5,113739
2905.5,113674
2906.5,113577
2907.5,89713.3
2908.5,-607.2
2909.5,-607.2
2910.5,-607.2
2911.5,-1714.19
2912.5,-3924.75
2913.5,99744.3
2914.5,109796
2915.5,108483
2916.5,107573
2917.5,107065
2918.5,107159
2919.5,107651
2920.5,108526
2921.5,109724
2922.5,111012
2923.5,113922
2924.5,114643
2925.5,114862
2926.5,114919
2927.5,114736
2928.5,114658
2929.5,114462
2930.5,23782.4
2931.5,-607.2
2932.5,-607.2
2933.5,-607.2
2934.5,-607.2
2935.5,-607.2
2936.5,-3002.94
2937.5,20471.9
2938.5,111855
2939.5,111020
2940.5,110236
2941.5,110073
2942.5,110000
2943.5,110201
2944.5,109816
2945.5,110699
2946.5,111153
2947.5,113068
2948.5,113607
2949.5,25869
2950.5,-607.2
2951.5,-607.2
2952.5,-607.2
2953.5,-607.2
2954.5,-607.2
2955.5,-607.2
2956.5,-607.2
2957.5,-607.2
2958.5,-607.2
2959.5,-607.2
2960.5,-607.2
2961.5,-1981.85
2962.5,-2860.73
2963.5,-2320.53
2964.5,-835.968
2965.5,-607.2
2966.5,-607.2
2967.5,-607.2
2968.5,-607.2
2969.5,-607.2
2970.5,-1858.17
2971.5,-835.968
2972.5,-607.2
2973.5,-607.2
2974.5,-607.2
2975.5,-607.2
2976.5,-607.2
2977.5,-607.2
2978.5,-607.2
2979.5,-607.2
2980.5,-607.2
2981.5,-607.2
2982.5,-607.2
2983.5,-607.2
2984.5,-3189.26
2985.5,40648.7
2986.5,111622
2987.5,110797
2988.5,110142
2989.5,109767
2990.5,109807
2991.5,110171
2992.5,110841
2993.5,111646
2994.5,111392
2995.5,112549
2996.5,112806
2997.5,112893
2998.5,112820
2999.5,1877.21
3000.5,-607.2
3001.5,-607.2
3002.5,-607.2
3003.5,-607.2
3004.5,-607.2
3005.5,-607.2
3006.5,-607.2
3007.5,-607.2
3008.5,-2041.17
3009.5,-3422.93
3010.5,-835.968
3011.5,-4543.38
3012.5,106746
3013.5,111166
3014.5,111222
3015.5,111324
3016.5,111227
3017.5,111244
3018.5,110141
3019.5,20376.2
3020.5,-607.2
3021.5,-607.2
3022.5,-607.2
3023.5,-607.2
3024.5,-607.2
3025.5,-607.2
3026.5,-607.2
3027.5,-607.2
3028.5,-607.2
3029.5,-607.2
3030.5,-607.2
3031.5,-607.2
3032.5,-2648.79
3033.5,1081.36
3034.5,111377
3035.5,110752
3036.5,110157
3037.5,109915
3038.5,110209
3039.5,110641
3040.5,110404
3041.5,109613
3042.5,107912
3043.5,-607.2
3044.5,-607.2
3045.5,-607.2
3046.5,-607.2
3047.5,-607.2
3048.5,-607.2
3049.5,-607.2
3050.5,-607.2
3051.5,-607.2
3052.5,-607.2
3053.5,-607.2
3054.5,-607.2
3055.5,-607.2
3056.5,-607.2
3057.5,-607.2
3058.5,-607.2
3059.5,-607.2
3060.5,-607.2
3061.5,-607.2
3062.5,-607.2
3063.5,-607.2
3064.5,-607.2
3065.5,-607.2
3066.5,-607.2
3067.5,-607.2
3068.5,-607.2
3069.5,-607.2
3070.5,-607.2
3071.5,-607.2
3072.5,-607.2
3073.5,-607.2
3074.5,-607.2
3075.5,-607.2
3076.5,-607.2
3077.5,-607.2
3078.5,-607.2
3079.5,-607.2
3080.5,-2362.6
3081.5,1434.39
3082.5,112412
3083.5,112356
3084.5,65792.9
3085.5,78497.7
3086.5,105023
3087.5,-835.968
3088.5,-3727.05
3089.5,-835.968
3090.5,-3203.35
3091.5,-835.968
3092.5,-607.2
3093.5,-607.2
3094.5,-607.2
3095.5,-607.2
3096.5,-607.2
3097.5,-607.2
3098.5,-607.2
3099.5,-607.2
3100.5,-607.2
3101.5,-607.2
3102.5,-607.2
3103.5,-1786.01
3104.5,-3840.77
3105.5,97188.2
3106.5,110682
3107.5,109982
3108.5,109510
3109.5,109341
3110.5,109473
3111.5,109861
3112.5,110496
3113.5,111284
3114.5,111745
3115.5,112088
3116.5,112398
3117.5,112527
3118.5,112535
3119.5,112486
3120.5,93553.3
3121.5,-607.2
3122.5,-607.2
3123.5,-607.2
3124.5,-607.2
3125.5,-607.2
3126.5,-607.2
3127.5,-607.2
3128.5,-607.2
3129.5,-607.2
3130.5,-2432.6
3131.5,-2253.46
3132.5,-3623.71
3133.5,16958.7
3134.5,74546.3
3135.5,69914.2
3136.5,52660.7
3137.5,-835.968
3138.5,-607.2
3139.5,-607.2
3140.5,-607.2
3141.5,-607.2
3142.5,-607.2
3143.5,-607.2
3144.5,-607.2
3145.5,-607.2
3146.5,-607.2
3147.5,-607.2
3148.5,-607.2
3149.5,-607.2
3150.5,-607.2
3151.5,-607.2
3152.5,-2740.51
3153.5,15907
3154.5,109897
3155.5,108660
3156.5,107689
3157.5,107032
3158.5,106581
3159.5,106714
3160.5,107168
3161.5,108060
3162.5,109317
3163.5,111030
3164.5,112048
3165.5,112289
3166.5,112325
3167.5,75395.6
3168.5,-607.2
3169.5,-607.2
3170.5,-607.2
3171.5,-607.2
3172.5,-607.2
3173.5,-607.2
3174.5,-607.2
3175.5,-1900.98
3176.5,-3904.46
3177.5,101170
3178.5,106083
3179.5,104422
3180.5,103412
3181.5,103032
3182.5,103146
3183.5,104879
3184.5,104844
3185.5,106160
3186.5,107806
3187.5,111667
3188.5,113292
3189.5,113655
3190.5,113881
3191.5,114013
3192.5,113985
3193.5,23670.6
3194.5,-607.2
3195.5,-607.2
3196.5,-607.2
3197.5,-607.2
3198.5,-607.2
3199.5,-607.2
3200.5,-2299.18
3201.5,-3586.99
3202.5,90428.7
3203.5,109739
3204.5,108616
3205.5,107884
3206.5,107489
3207.5,107876
3208.5,108497
3209.5,109000
3210.5,110346
3211.5,83185
3212.5,-607.2
3213.5,-607.2
3214.5,-607.2
3215.5,-607.2
3216.5,-607.2
3217.5,-607.2
3218.5,-607.2
3219.5,-607.2
3220.5,-607.2
3221.5,-607.2
3222.5,-607.2
3223.5,-607.2
3224.5,-607.2
3225.5,-607.2
3226.5,-2555.9
3227.5,1805.49
3228.5,98753.1
3229.5,93246.3
3230.5,60662.1
3231.5,-835.968
3232.5,-4193.99
3233.5,-835.968
3234.5,-607.2
3235.5,-607.2
3236.5,-607.2
3237.5,-607.2
3238.5,-607.2
3239.5,-607.2
3240.5,-607.2
3241.5,-607.2
3242.5,-607.2
3243.5,-607.2
3244.5,-607.2
3245.5,-607.2
3246.5,-607.2
3247.5,-607.2
3248.5,-607.2
3249.5,-2320.64
3250.5,-3504.92
3251.5,68418.7
3252.5,112143
3253.5,112082
3254.5,87549
3255.5,84985.1
3256.5,79733.6
3257.5,60588.5
3258.5,-835.968
3259.5,-607.2
3260.5,-607.2
3261.5,-607.2
3262.5,-607.2
3263.5,-607.2
3264.5,-607.2
3265.5,-607.2
3266.5,-607.2
3267.5,-607.2
3268.5,-607.2
3269.5,-607.2
3270.5,-607.2
3271.5,-607.2
3272.5,-607.2
3273.5,-607.2
3274.5,-607.2
3275.5,-607.2
3276.5,-607.2
3277.5,-2731.38
3278.5,-835.968
3279.5,-4002.1
3280.5,-835.968
3281.5,-2243.35
3282.5,-835.968
3283.5,-607.2
3284.5,-607.2
3285.5,-607.2
3286.5,-607.2
3287.5,-607.2
3288.5,-607.2
3289.5,-607.2
3290.5,-607.2
3291.5,-607.2
3292.5,-607.2
3293.5,-607.2
3294.5,-607.2
3295.5,-607.2
3296.5,-3428.19
3297.5,49097.7
3298.5,110775
3299.5,109904
3300.5,109200
3301.5,109237
3302.5,109826
3303.5,110002
3304.5,110403
3305.5,110995
3306.5,109645
3307.5,108556
3308.5,109140
3309.5,109167
3310.5,24433.7
3311.5,-607.2
3312.5,-607.2
3313.5,-607.2
3314.5,-607.2
3315.5,-607.2
3316.5,-607.2
3317.5,-607.2
3318.5,-607.2
3319.5,-607.2
3320.5,-2939.41
3321.5,17219.7
3322.5,79476.3
3323.5,110299
3324.5,109205
3325.5,108870
3326.5,108909
3327.5,109853
3328.5,110016
3329.5,109833
3330.5,109268
3331.5,42525.2
3332.5,-607.2
3333.5,-607.2
3334.5,-607.2
3335.5,-607.2
3336.5,-607.2
3337.5,-607.2
3338.5,-607.2
3339.5,-607.2
3340.5,-607.2
3341.5,-607.2
3342.5,-607.2
3343.5,-607.2
3344.5,-2284.39
3345.5,-2263.81
3346.5,51893
3347.5,110928
3348.5,110023
3349.5,110562
3350.5,110315
3351.5,110255
3352.5,110442
3353.5,109714
3354.5,29339
3355.5,-835.968
3356.5,-607.2
3357.5,-607.2
3358.5,-607.2
3359.5,-607.2
3360.5,-607.2
3361.5,-607.2
3362.5,-607.2
3363.5,-607.2
3364.5,-607.2
3365.5,-607.2
3366.5,-607.2
3367.5,-607.2
3368.5,-3147.25
3369.5,9175.73
3370.5,112229
3371.5,112284
3372.5,109471
3373.5,108750
3374.5,108532
3375.5,108688
3376.5,109247
3377.5,110183
3378.5,111166
3379.5,112501
3380.5,114189
3381.5,114524
3382.5,114567
3383.5,114596
3384.5,113635
3385.5,113547
3386.5,113408
3387.5,29120.9
3388.5,-607.2
3389.5,-607.2
3390.5,-607.2
3391.5,-3693.81
3392.5,58641.4
3393.5,111501
3394.5,110779
3395.5,111133
3396.5,110044
3397.5,110330
3398.5,110867
3399.5,109867
3400.5,110869
3401.5,110518
3402.5,113552
3403.5,111026
3404.5,113986
3405.5,114159
3406.5,46612.8
3407.5,-607.2
3408.5,-607.2
3409.5,-607.2
3410.5,-607.2
3411.5,-607.2
3412.5,-607.2
3413.5,-607.2
3414.5,-607.2
3415.5,-2618.92
3416.5,22444.6
3417.5,111849
3418.5,111469
3419.5,110483
3420.5,110275
3421.5,110319
3422.5,111033
3423.5,109975
3424.5,110938
3425.5,111388
3426.5,111495
3427.5,113021
3428.5,113471
3429.5,54402.3
3430.5,-607.2
3431.5,-607.2
3432.5,-607.2
3433.5,-607.2
3434.5,-607.2
3435.5,-607.2
3436.5,-607.2
3437.5,-607.2
3438.5,-607.2
3439.5,-607.2
3440.5,-2464.1
3441.5,-3647.43
3442.5,97143.2
3443.5,111059
3444.5,110609
3445.5,110395
3446.5,87462.3
3447.5,-835.968
3448.5,-2552.42
3449.5,-2287.99
3450.5,-607.2
3451.5,-607.2
3452.5,-607.2
3453.5,-607.2
3454.5,-607.2
3455.5,-607.2
3456.5,-607.2
3457.5,-607.2
3458.5,-607.2
3459.5,-607.2
3460.5,-607.2
3461.5,-607.2
3462.5,-607.2
3463.5,-607.2
3464.5,-607.2
3465.5,-2272.51
3466.5,-3282.07
3467.5,34947.7
3468.5,51127
3469.5,74327.6
3470.5,-835.968
3471.5,-3721.59
3472.5,61010.2
3473.5,112314
3474.5,85647.8
3475.5,-835.968
3476.5,-607.2
3477.5,-607.2
3478.5,-607.2
3479.5,-607.2
3480.5,-607.2
3481.5,-607.2
3482.5,-607.2
3483.5,-607.2
3484.5,-607.2
3485.5,-607.2
3486.5,-607.2
3487.5,-2533.51
3488.5,24022.9
3489.5,111440
3490.5,110191
3491.5,109278
3492.5,108670
3493.5,108374
3494.5,108425
3495.5,108732
3496.5,109334
3497.5,110240
3498.5,111238
3499.5,111972
3500.5,113540
3501.5,113883
3502.5,114008
3503.5,113810
3504.5,113920
3505.5,113930
3506.5,113866
3507.5,113731
3508.5,29023.2
3509.5,-607.2
3510.5,-607.2
3511.5,-3409.73
3512.5,48780.6
3513.5,110168
3514.5,108788
3515.5,107681
3516.5,106803
3517.5,106368
3518.5,106377
3519.5,106849
3520.5,107634
3521.5,110256
3522.5,111369
3523.5,111702
3524.5,114527
3525.5,114892
3526.5,114895
3527.5,114952
3528.5,115046
3529.5,114869
3530.5,115018
3531.5,115055
3532.5,115035
3533.5,102452
3534.5,-607.2
3535.5,-2967.09
3536.5,36561.4
3537.5,110621
3538.5,109746
3539.5,108328
3540.5,108363
3541.5,110101
3542.5,109674
3543.5,109895
3544.5,110517
3545.5,112650
3546.5,113032
3547.5,113364
3548.5,28183.6
3549.5,-607.2
3550.5,-607.2
3551.5,-607.2
3552.5,-607.2
3553.5,-607.2
3554.5,-607.2
3555.5,-607.2
3556.5,-607.2
3557.5,-607.2
3558.5,-607.2
3559.5,-2466.49
3560.5,14285.5
3561.5,110742
3562.5,109155
3563.5,107763
3564.5,106604
3565.5,105933
3566.5,105807
3567.5,106302
3568.5,107167
3569.5,108382
3570.5,109693
3571.5,112955
3572.5,113949
3573.5,114339
3574.5,114456
3575.5,114436
3576.5,114418
3577.5,114334
3578.5,61207.8
3579.5,-607.2
3580.5,-607.2
3581.5,-607.2
3582.5,-607.2
3583.5,-2245.1
3584.5,-1436.79
3585.5,110743
3586.5,110414
3587.5,109750
3588.5,109410
3589.5,108170
3590.5,110278
3591.5,109090
3592.5,112022
3593.5,112293
3594.5,75214.5
3595.5,-835.968
3596.5,-607.2
3597.5,-607.2
3598.5,-607.2
3599.5,-607.2
3600.5,-607.2
3601.5,-607.2
3602.5,-607.2
3603.5,-607.2
3604.5,-607.2
3605.5,-607.2
3606.5,-607.2
3607.5,-607.2
3608.5,-3315.01
3609.5,37837.7
3610.5,109584
3611.5,108495
3612.5,107685
3613.5,107714
3614.5,107832
3615.5,106938
3616.5,107369
3617.5,108112
3618.5,108926
3619.5,110736
3620.5,111919
3621.5,40403.5
3622.5,-607.2
3623.5,-607.2
3624.5,-607.2
3625.5,-607.2
3626.5,-607.2
3627.5,-607.2
3628.5,-607.2
3629.5,-607.2
3630.5,-607.2
3631.5,-607.2
3632.5,-3661.67
3633.5,55610
3634.5,110022
3635.5,24923.5
3636.5,-607.2
3637.5,-6062.97
3638.5,107435
3639.5,107683
3640.5,108209
3641.5,109160
3642.5,109842
3643.5,111499
3644.5,112262
3645.5,13252.9
3646.5,-607.2
3647.5,-607.2
3648.5,-607.2
3649.5,-607.2
3650.5,-607.2
3651.5,-607.2
3652.5,-607.2
3653.5,-607.2
3654.5,-607.2
3655.5,-1829.74
3656.5,-1954.98
3657.5,-835.968
3658.5,-607.2
3659.5,-5767.35
3660.5,108462
3661.5,109456
3662.5,4232.05
3663.5,-607.2
3664.5,-607.2
3665.5,-607.2
3666.5,-607.2
3667.5,-607.2
3668.5,-607.2
3669.5,-607.2
3670.5,-607.2
3671.5,-607.2
3672.5,-607.2
3673.5,-607.2
3674.5,-607.2
3675.5,-607.2
3676.5,-607.2
3677.5,-607.2
3678.5,-607.2
3679.5,-607.2
3680.5,-1683.85
3681.5,-3695.4
3682.5,84270.5
3683.5,110875
3684.5,110064
3685.5,109372
3686.5,108623
3687.5,21163.8
3688.5,-607.2
3689.5,-607.2
3690.5,-1917.73
3691.5,-2138.99
3692.5,-835.968
3693.5,-607.2
3694.5,-607.2
3695.5,-607.2
3696.5,-607.2
3697.5,-607.2
3698.5,-607.2
3699.5,-607.2
3700.5,-607.2
3701.5,-607.2
3702.5,-607.2
3703.5,-607.2
3704.5,-607.2
3705.5,-607.2
3706.5,-607.2
3707.5,-4488.66
3708.5,-835.968
3709.5,-607.2
3710.5,-607.2
3711.5,-607.2
3712.5,-607.2
3713.5,-607.2
3714.5,-607.2
3715.5,-607.2
3716.5,-607.2
3717.5,-607.2
3718.5,-607.2
3719.5,-607.2
3720.5,-607.2
3721.5,-607.2
3722.5,-607.2
3723.5,-607.2
3724.5,-607.2
3725.5,-607.2
3726.5,-607.2
3727.5,-607.2
3728.5,-607.2
3729.5,-607.2
3730.5,-607.2
3731.5,-607.2
3732.5,-607.2
3733.5,-607.2
3734.5,-607.2
3735.5,-607.2
3736.5,-5585.85
3737.5,111059
3738.5,111099
3739.5,50945.5
3740.5,-607.2
3741.5,-607.2
3742.5,-607.2
3743.5,-607.2
3744.5,-607.2
3745.5,-607.2
3746.5,-607.2
3747.5,-607.2
3748.5,-607.2
3749.5,-607.2
3750.5,-607.2
3751.5,-2023.56
3752.5,-3751.84
3753.5,97469.1
3754.5,111129
3755.5,110703
3756.5,107165
3757.5,66481.9
3758.5,31391.6
3759.5,-607.2
3760.5,-5355.54
3761.5,111374
3762.5,41204.6
3763.5,-2395.98
3764.5,-835.968
3765.5,-607.2
3766.5,-607.2
3767.5,-607.2
3768.5,-607.2
3769.5,-607.2
3770.5,-607.2
3771.5,-607.2
3772.5,-607.2
3773.5,-607.2
3774.5,-607.2
3775.5,-2756.16
3776.5,29911.5
3777.5,110991
3778.5,109966
3779.5,109149
3780.5,108469
3781.5,108011
3782.5,108327
3783.5,108581
3784.5,109178
3785.5,110088
3786.5,111034
3787.5,113265
3788.5,113604
3789.5,113891
3790.5,113907
3791.5,113920
3792.5,113910
3793.5,113912
3794.5,18800.8
3795.5,-607.2
3796.5,-607.2
3797.5,-607.2
3798.5,-607.2
3799.5,-2549.3
3800.5,-1907.35
3801.5,49115.5
3802.5,109764
3803.5,108741
3804.5,107827
3805.5,107155
3806.5,106802
3807.5,106968
3808.5,107518
3809.5,108479
3810.5,109720
3811.5,111162
3812.5,113939
3813.5,114520
3814.5,114622
3815.5,114631
3816.5,114695
3817.5,114709
3818.5,114664
3819.5,111495
3820.5,-607.2
3821.5,-607.2
3822.5,-607.2
3823.5,-3716.26
3824.5,59271
3825.5,109081
3826.5,107563
3827.5,106363
3828.5,105449
3829.5,104862
3830.5,105204
3831.5,105559
3832.5,106414
3833.5,107757
3834.5,109116
3835.5,110556
3836.5,113841
3837.5,114444
3838.5,114608
3839.5,114652
3840.5,114685
3841.5,114708
3842.5,114760
3843.5,114728
3844.5,68712.9
3845.5,-607.2
3846.5,-607.2
3847.5,-3180.04
3848.5,42264.9
3849.5,109654
3850.5,107914
3851.5,106707
3852.5,105740
3853.5,105361
3854.5,105294
3855.5,105682
3856.5,106472
3857.5,107660
3858.5,109093
3859.5,112316
3860.5,113358
3861.5,113805
3862.5,113963
3863.5,114046
3864.5,114075
3865.5,94337.8
3866.5,-607.2
3867.5,-607.2
3868.5,-607.2
3869.5,-607.2
3870.5,-607.2
3871.5,-607.2
3872.5,-1844.91
3873.5,-835.968
3874.5,-607.2
3875.5,-5888.3
3876.5,28977.6
3877.5,-607.2
3878.5,-5726.13
3879.5,25545.3
3880.5,-5251.29
3881.5,109185
3882.5,44687.7
3883.5,-2192.46
3884.5,-835.968
3885.5,-607.2
3886.5,-607.2
3887.5,-607.2
3888.5,-607.2
3889.5,-607.2
3890.5,-607.2
3891.5,-607.2
3892.5,-607.2
3893.5,-607.2
3894.5,-607.2
3895.5,-2764.48
3896.5,29369.8
3897.5,109239
3898.5,107547
3899.5,106268
3900.5,105561
3901.5,105324
3902.5,105280
3903.5,105548
3904.5,106141
3905.5,107195
3906.5,108511
3907.5,111726
3908.5,113125
3909.5,113533
3910.5,113516
3911.5,113462
3912.5,113465
3913.5,62975
3914.5,-607.2
3915.5,-607.2
3916.5,-607.2
3917.5,-607.2
3918.5,-607.2
3919.5,-607.2
3920.5,-607.2
3921.5,-607.2
3922.5,-607.2
3923.5,-607.2
3924.5,-607.2
3925.5,-607.2
3926.5,-607.2
3927.5,-607.2
3928.5,-607.2
3929.5,-607.2
3930.5,-607.2
3931.5,-2459.66
3932.5,-835.968
3933.5,-607.2
3934.5,-607.2
3935.5,-607.2
3936.5,-607.2
3937.5,-607.2
3938.5,-607.2
3939.5,-607.2
3940.5,-607.2
3941.5,-607.2
3942.5,-607.2
3943.5,-1914.43
3944.5,-3640.59
3945.5,85451.6
3946.5,109689
3947.5,108693
3948.5,107954
3949.5,107579
3950.5,109260
3951.5,109423
3952.5,106228
3953.5,109105
3954.5,110129
3955.5,111136
3956.5,5137.29
3957.5,-607.2
3958.5,-607.2
3959.5,-607.2
3960.5,-607.2
3961.5,-607.2
3962.5,-607.2
3963.5,-607.2
3964.5,-607.2
3965.5,-607.2
3966.5,-607.2
3967.5,-607.2
3968.5,-3443.55
3969.5,42571.3
3970.5,110080
3971.5,109113
3972.5,108409
3973.5,107970
3974.5,107925
3975.5,108037
3976.5,108428
3977.5,109075
3978.5,109599
3979.5,111332
3980.5,112226
3981.5,112454
3982.5,40171.4
3983.5,-607.2
3984.5,-607.2
3985.5,-607.2
3986.5,-607.2
3987.5,-607.2
3988.5,-607.2
3989.5,-607.2
3990.5,-607.2
3991.5,-607.2
3992.5,-607.2
3993.5,-607.2
3994.5,-607.2
3995.5,-607.2
3996.5,-607.2
3997.5,-607.2
3998.5,-607.2
3999.5,-607.2
4000.5,-607.2
4001.5,-607.2
4002.5,-3839.38
4003.5,-835.968
4004.5,-607.2
4005.5,-607.2
4006.5,-607.2
4007.5,-607.2
4008.5,-607.2
4009.5,-607.2
4010.5,-607.2
4011.5,-607.2
4012.5,-607.2
4013.5,-607.2
4014.5,-607.2
4015.5,-2207.85
4016.5,-3849.66
4017.5,107553
4018.5,109728
4019.5,109128
4020.5,108460
4021.5,107985
4022.5,107130
4023.5,107395
4024.5,107955
4025.5,108838
4026.5,109904
4027.5,110666
4028.5,112494
4029.5,113012
4030.5,113158
4031.5,113218
4032.5,113175
4033.5,113126
4034.5,6623.9
4035.5,-607.2
4036.5,-607.2
4037.5,-607.2
4038.5,-607.2
4039.5,-2706.32
4040.5,25455.5
4041.5,110295
4042.5,33628.3
4043.5,-607.2
4044.5,-6829.36
4045.5,106430
4046.5,106666
4047.5,107219
4048.5,107944
4049.5,108871
4050.5,109852
4051.5,112378
4052.5,113341
4053.5,113645
4054.5,90215.7
4055.5,-607.2
4056.5,-607.2
4057.5,-607.2
4058.5,-607.2
4059.5,-607.2
4060.5,-607.2
4061.5,-607.2
4062.5,-607.2
4063.5,-2888.55
4064.5,33746.5
4065.5,109746
4066.5,108381
4067.5,107216
4068.5,106238
4069.5,105706
4070.5,105560
4071.5,105800
4072.5,106628
4073.5,107696
4074.5,108947
4075.5,110344
4076.5,113389
4077.5,114026
4078.5,114189
4079.5,114373
4080.5,114417
4081.5,114372
4082.5,114315
4083.5,114164
4084.5,6840.39
4085.5,-607.2
4086.5,-607.2
4087.5,-3492.81
4088.5,49971.6
4089.5,109089
4090.5,107500
4091.5,106189
4092.5,105106
4093.5,104309
4094.5,104080
4095.5,104451
4096.5,105195
4097.5,106430
4098.5,107696
4099.5,109669
4100.5,113286
4101.5,114132
4102.5,114315
4103.5,114464
4104.5,114623
4105.5,114689
4106.5,114697
4107.5,114645
4108.5,114548
4109.5,97323
4110.5,-607.2
4111.5,-2984.24
4112.5,36039.2
4113.5,108101
4114.5,106360
4115.5,105023
4116.5,104121
4117.5,103645
4118.5,109131
4119.5,103806
4120.5,109455
4121.5,105772
4122.5,107569
4123.5,109133
4124.5,112371
4125.5,100559
4126.5,-607.2
4127.5,-607.2
4128.5,-607.2
4129.5,-607.2
4130.5,-607.2
4131.5,-607.2
4132.5,-607.2
4133.5,-607.2
4134.5,-607.2
4135.5,-607.2
4136.5,-607.2
4137.5,-4107.2
4138.5,-835.968
4139.5,-5371.76
4140.5,106885
4141.5,106188
4142.5,105799
4143.5,108845
4144.5,105542
4145.5,107631
4146.5,108697
4147.5,110884
4148.5,53452.3
4149.5,-607.2
4150.5,-607.2
4151.5,-607.2
4152.5,-607.2
4153.5,-607.2
4154.5,-607.2
4155.5,-607.2
4156.5,-607.2
4157.5,-607.2
4158.5,-607.2
4159.5,-2469.63
4160.5,13889.8
4161.5,110264
4162.5,108706
4163.5,107436
4164.5,106442
4165.5,105839
4166.5,105642
4167.5,106144
4168.5,106814
4169.5,107887
4170.5,109224
4171.5,110667
4172.5,113537
4173.5,114104
4174.5,114249
4175.5,114274
4176.5,114273
4177.5,114268
4178.5,114208
4179.5,114129
4180.5,-607.2
4181.5,-607.2
4182.5,-607.2
4183.5,-2585.16
4184.5,20806.2
4185.5,110067
4186.5,108776
4187.5,107613
4188.5,106513
4189.5,110892
4190.5,110703
4191.5,104871
4192.5,106340
4193.5,107349
4194.5,108720
4195.5,110025
4196.5,112882
4197.5,113503
4198.5,28723
4199.5,-607.2
4200.5,-607.2
4201.5,-607.2
4202.5,-607.2
4203.5,-607.2
4204.5,-607.2
4205.5,-607.2
4206.5,-607.2
4207.5,-607.2
4208.5,-607.2
4209.5,-607.2
4210.5,-607.2
4211.5,-607.2
4212.5,-607.2
4213.5,-607.2
4214.5,-607.2
4215.5,-607.2
4216.5,-5590.26
4217.5,108600
4218.5,109564
4219.5,61637.3
4220.5,-607.2
4221.5,-607.2
4222.5,-607.2
4223.5,-607.2
4224.5,-607.2
4225.5,-607.2
4226.5,-607.2
4227.5,-607.2
4228.5,-607.2
4229.5,-607.2
4230.5,-607.2
4231.5,-607.2
4232.5,-3668.96
4233.5,56468.8
4234.5,-835.968
4235.5,-607.2
4236.5,-607.2
4237.5,-607.2
4238.5,-607.2
4239.5,-607.2
4240.5,-607.2
4241.5,-607.2
4242.5,-607.2
4243.5,-607.2
4244.5,-607.2
4245.5,-607.2
4246.5,-607.2
4247.5,-607.2
4248.5,-607.2
4249.5,-607.2
4250.5,-607.2
4251.5,-607.2
4252.5,-607.2
4253.5,-607.2
4254.5,-607.2
4255.5,-607.2
4256.5,-3925.93
4257.5,-835.968
4258.5,-607.2
4259.5,-6044.44
4260.5,30731.8
4261.5,-607.2
4262.5,-607.2
4263.5,-607.2
4264.5,-607.2
4265.5,-607.2
4266.5,-4330.82
4267.5,44879.9
4268.5,-835.968
4269.5,-607.2
4270.5,-607.2
4271.5,-607.2
4272.5,-607.2
4273.5,-607.2
4274.5,-607.2
4275.5,-607.2
4276.5,-607.2
4277.5,-607.2
4278.5,-607.2
4279.5,-2540.87
4280.5,-1677.67
4281.5,-835.968
4282.5,-607.2
4283.5,-6311.58
4284.5,105398
4285.5,102600
4286.5,79349.4
4287.5,105079
4288.5,105738
4289.5,106857
4290.5,108207
4291.5,109047
4292.5,110909
4293.5,111592
4294.5,43571.3
4295.5,-607.2
4296.5,-607.2
4297.5,-607.2
4298.5,-607.2
4299.5,-607.2
4300.5,-607.2
4301.5,-607.2
4302.5,-607.2
4303.5,-3108.05
4304.5,40728.1
4305.5,108956
4306.5,107314
4307.5,108990
4308.5,96812.9
4309.5,104185
4310.5,104306
4311.5,104597
4312.5,105258
4313.5,106379
4314.5,107730
4315.5,109230
4316.5,112418
4317.5,113322
4318.5,113592
4319.5,113737
4320.5,84448
4321.5,-607.2
4322.5,-607.2
4323.5,-607.2
4324.5,-607.2
4325.5,-607.2
4326.5,-607.2
4327.5,-1830.79
4328.5,-835.968
4329.5,-607.2
4330.5,-1920.4
4331.5,-835.968
4332.5,-607.2
4333.5,-607.2
4334.5,-607.2
4335.5,-607.2
4336.5,-607.2
4337.5,-607.2
4338.5,-607.2
4339.5,-607.2
4340.5,-607.2
4341.5,-607.2
4342.5,-607.2
4343.5,-607.2
4344.5,-607.2
4345.5,-607.2
4346.5,-607.2
4347.5,-607.2
4348.5,-607.2
4349.5,-607.2
4350.5,-607.2
4351.5,-607.2
4352.5,-4708.11
4353.5,108160
4354.5,106368
4355.5,104771
4356.5,103634
4357.5,103014
4358.5,102931
4359.5,103308
4360.5,104025
4361.5,105298
4362.5,107260
4363.5,109217
4364.5,112459
4365.5,113287
4366.5,113415
4367.5,113563
4368.5,113696
4369.5,113832
4370.5,113833
4371.5,113756
4372.5,113636
4373.5,113455
4374.5,-607.2
4375.5,-2909.17
4376.5,34815
4377.5,108678
4378.5,106547
4379.5,104945
4380.5,103762
4381.5,103086
4382.5,102791
4383.5,103079
4384.5,105057
4385.5,104673
4386.5,106054
4387.5,108441
4388.5,112345
4389.5,113283
4390.5,113666
4391.5,113966
4392.5,114095
4393.5,114154
4394.5,114139
4395.5,114061
4396.5,36896.8
4397.5,-607.2
4398.5,-607.2
4399.5,-3103.81
4400.5,39070.9
4401.5,106002
4402.5,104005
4403.5,102488
4404.5,101275
4405.5,100477
4406.5,100221
4407.5,101358
4408.5,101503
4409.5,102807
4410.5,104436
4411.5,106903
4412.5,111117
4413.5,112256
4414.5,112554
4415.5,112708
4416.5,112684
4417.5,112721
4418.5,113134
4419.5,65910.4
4420.5,-607.2
4421.5,-607.2
4422.5,-607.2
4423.5,-607.2
4424.5,-1930.72
4425.5,-2899.99
4426.5,-4001.98
4427.5,77979.9
4428.5,107164
4429.5,106805
4430.5,107018
4431.5,107150
4432.5,107312
4433.5,90448.9
4434.5,-607.2
4435.5,-607.2
4436.5,-607.2
4437.5,-607.2
4438.5,-607.2
4439.5,-607.2
4440.5,-607.2
4441.5,-607.2
4442.5,-607.2
4443.5,-607.2
4444.5,-607.2
4445.5,-607.2
4446.5,-607.2
4447.5,-607.2
4448.5,-607.2
4449.5,-2628.1
4450.5,-835.968
4451.5,-607.2
4452.5,-2504.2
4453.5,-3760.19
4454.5,103613
4455.5,105913
4456.5,106252
4457.5,106942
4458.5,107334
4459.5,107196
4460.5,14384.5
4461.5,-607.2
4462.5,-607.2
4463.5,-607.2
4464.5,-607.2
4465.5,-607.2
4466.5,-607.2
4467.5,-607.2
4468.5,-607.2
4469.5,-607.2
4470.5,-607.2
4471.5,-1799.11
4472.5,-835.968
4473.5,-4057.82
4474.5,72081.8
4475.5,54535.8
4476.5,58876
4477.5,59717.7
4478.5,106048
4479.5,91132.5
4480.5,64494.2
4481.5,106074
4482.5,106512
4483.5,6718.78
4484.5,-835.968
4485.5,-607.2
4486.5,-607.2
4487.5,-607.2
4488.5,-607.2
4489.5,-607.2
4490.5,-607.2
4491.5,-607.2
4492.5,-607.2
4493.5,-607.2
4494.5,-607.2
4495.5,-607.2
4496.5,-3094.84
4497.5,28627.3
4498.5,-835.968
4499.5,-2171.5
4500.5,-835.968
4501.5,-1669.4
4502.5,-835.968
4503.5,-607.2
4504.5,-607.2
4505.5,-607.2
4506.5,-1803.61
4507.5,-2333.83
4508.5,-835.968
4509.5,-607.2
4510.5,-607.2
4511.5,-607.2
4512.5,-607.2
4513.5,-607.2
4514.5,-607.2
4515.5,-607.2
4516.5,-607.2
4517.5,-607.2
4518.5,-607.2
4519.5,-607.2
4520.5,-607.2
4521.5,-607.2
4522.5,-607.2
4523.5,-607.2
4524.5,-607.2
4525.5,-607.2
4526.5,-607.2
4527.5,-607.2
4528.5,-607.2
4529.5,-2532.42
4530.5,-3267.73
4531.5,-835.968
4532.5,-607.2
4533.5,-607.2
4534.5,-607.2
4535.5,-607.2
4536.5,-607.2
4537.5,-607.2
4538.5,-607.2
4539.5,-607.2
4540.5,-607.2
4541.5,-607.2
4542.5,-607.2
4543.5,-607.2
4544.5,-1937.78
4545.5,-835.968
4546.5,-2981.69
4547.5,-835.968
4548.5,-607.2
4549.5,-607.2
4550.5,-607.2
4551.5,-3458.68
4552.5,-835.968
4553.5,-5026.28
4554.5,109843
4555.5,104553
4556.5,1896.64
4557.5,-607.2
4558.5,-607.2
4559.5,-607.2
4560.5,-607.2
4561.5,-607.2
4562.5,-607.2
4563.5,-607.2
4564.5,-607.2
4565.5,-607.2
4566.5,-607.2
4567.5,-2566.62
4568.5,22468.3
4569.5,109790
4570.5,25102.1
4571.5,-607.2
4572.5,-3622.08
4573.5,-835.968
4574.5,-1968.73
4575.5,-835.968
4576.5,-1750.21
4577.5,-835.968
4578.5,-607.2
4579.5,-2586.51
4580.5,-835.968
4581.5,-607.2
4582.5,-607.2
4583.5,-607.2
4584.5,-607.2
4585.5,-607.2
4586.5,-607.2
4587.5,-607.2
4588.5,-607.2
4589.5,-607.2
4590.5,-607.2
4591.5,-2088.06
4592.5,-2703.59
4593.5,-3812.79
4594.5,65955.6
4595.5,107763
4596.5,106903
4597.5,104474
4598.5,102191
4599.5,107280
4600.5,107193
4601.5,107955
4602.5,109065
4603.5,109200
4604.5,110184
4605.5,110788
4606.5,79048.5
4607.5,-607.2
4608.5,-607.2
4609.5,-607.2
4610.5,-607.2
4611.5,-607.2
4612.5,-607.2
4613.5,-607.2
4614.5,-607.2
4615.5,-607.2
4616.5,-607.2
4617.5,-607.2
4618.5,-607.2
4619.5,-4538.36
4620.5,103441
4621.5,106745
4622.5,106539
4623.5,106729
4624.5,107265
4625.5,108327
4626.5,109684
4627.5,110359
4628.5,112647
4629.5,113235
4630.5,113263
4631.5,113146
4632.5,74133.8
4633.5,-607.2
4634.5,-607.2
4635.5,-607.2
4636.5,-607.2
4637.5,-607.2
4638.5,-607.2
4639.5,-2847.69
4640.5,33265
4641.5,109347
4642.5,107943
4643.5,106700
4644.5,105813
4645.5,105249
4646.5,105201
4647.5,105428
4648.5,106061
4649.5,107123
4650.5,108510
4651.5,110083
4652.5,113132
4653.5,113813
4654.5,113822
4655.5,113805
4656.5,113926
4657.5,114176
4658.5,114247
4659.5,103585
4660.5,-607.2
4661.5,-607.2
4662.5,-607.2
4663.5,-2516.83
4664.5,19635
4665.5,108216
4666.5,106507
4667.5,105112
4668.5,104166
4669.5,103552
4670.5,103329
4671.5,103640
4672.5,104262
4673.5,105390
4674.5,106845
4675.5,111266
4676.5,112924
4677.5,113485
4678.5,113727
4679.5,113936
4680.5,114023
4681.5,114072
4682.5,104038
4683.5,-607.2
4684.5,-607.2
4685.5,-607.2
4686.5,-607.2
4687.5,-3143.62
4688.5,41739.5
4689.5,108253
4690.5,106393
4691.5,104755
4692.5,103480
4693.5,102861
4694.5,102880
4695.5,103283
4696.5,104116
4697.5,105469
4698.5,107133
4699.5,109068
4700.5,112637
4701.5,113421
4702.5,113598
4703.5,113850
4704.5,114030
4705.5,114189
4706.5,114304
4707.5,114331
4708.5,114205
4709.5,55443.6
4710.5,-607.2
4711.5,-2272.41
4712.5,240.819
4713.5,111095
4714.5,110265
4715.5,110120
4716.5,109736
4717.5,36061.7
4718.5,-2844.13
4719.5,-1756.82
4720.5,-607.2
4721.5,-607.2
4722.5,-607.2
4723.5,-1788.99
4724.5,-835.968
4725.5,-607.2
4726.5,-607.2
4727.5,-607.2
4728.5,-607.2
4729.5,-607.2
4730.5,-607.2
4731.5,-607.2
4732.5,-607.2
4733.5,-607.2
4734.5,-607.2
4735.5,-607.2
4736.5,-1789.48
4737.5,-2378.58
4738.5,15106.1
4739.5,109385
4740.5,109037
4741.5,108861
4742.5,6984.96
4743.5,-1461.36
4744.5,-835.968
4745.5,-3754.48
4746.5,20314.9
4747.5,54409.5
4748.5,-835.968
4749.5,-607.2
4750.5,-607.2
4751.5,-607.2
4752.5,-607.2
4753.5,-607.2
4754.5,-607.2
4755.5,-607.2
4756.5,-607.2
4757.5,-607.2
4758.5,-607.2
4759.5,-2144.27
4760.5,520.31
4761.5,108747
4762.5,106908
4763.5,105384
4764.5,104245
4765.5,103502
4766.5,103255
4767.5,103485
4768.5,104127
4769.5,105184
4770.5,106618
4771.5,108577
4772.5,111298
4773.5,112263
4774.5,112553
4775.5,112754
4776.5,112801
4777.5,112780
4778.5,112700
4779.5,112536
4780.5,14830.1
4781.5,-607.2
4782.5,-607.2
4783.5,-607.2
4784.5,-1928.71
4785.5,-3463.48
4786.5,69834.9
4787.5,106122
4788.5,104690
4789.5,103980
4790.5,105809
4791.5,105502
4792.5,105474
4793.5,107099
4794.5,76763.4
4795.5,-607.2
4796.5,-607.2
4797.5,-607.2
4798.5,-607.2
4799.5,-607.2
4800.5,-607.2
4801.5,-607.2
4802.5,-607.2
4803.5,-607.2
4804.5,-607.2
4805.5,-607.2
4806.5,-607.2
4807.5,-607.2
4808.5,-607.2
4809.5,-607.2
4810.5,-607.2
4811.5,-607.2
4812.5,-607.2
4813.5,-607.2
4814.5,-607.2
4815.5,-607.2
4816.5,-607.2
4817.5,-607.2
4818.5,-2503.65
4819.5,-1615.82
4820.5,-835.968
4821.5,-607.2
4822.5,-607.2
4823.5,-607.2
4824.5,-607.2
4825.5,-607.2
4826.5,-607.2
4827.5,-607.2
4828.5,-607.2
4829.5,-607.2
4830.5,-607.2
4831.5,-607.2
4832.5,-3210.46
4833.5,43550.2
4834.5,109760
4835.5,108495
4836.5,107483
4837.5,106799
4838.5,106577
4839.5,106866
4840.5,107488
4841.5,108463
4842.5,109579
4843.5,110111
4844.5,112056
4845.5,112581
4846.5,112655
4847.5,112676
4848.5,112651
4849.5,112642
4850.5,-607.2
4851.5,-607.2
4852.5,-607.2
4853.5,-607.2
4854.5,-607.2
4855.5,-2214.82
4856.5,7487.47
4857.5,109318
4858.5,107789
4859.5,106446
4860.5,105378
4861.5,104618
4862.5,104418
4863.5,105049
4864.5,106161
4865.5,106860
4866.5,108470
4867.5,111772
4868.5,112880
4869.5,113267
4870.5,113447
4871.5,113574
4872.5,113571
4873.5,113526
4874.5,46821.7
4875.5,-607.2
4876.5,-607.2
4877.5,-607.2
4878.5,-607.2
4879.5,-607.2
4880.5,-607.2
4881.5,-607.2
4882.5,-607.2
4883.5,-607.2
4884.5,-607.2
4885.5,-2609.84
4886.5,-3696.64
4887.5,106076
4888.5,109607
4889.5,109965
4890.5,110900
4891.5,111363
4892.5,9921.11
4893.5,-607.2
4894.5,-607.2
4895.5,-607.2
4896.5,-607.2
4897.5,-607.2
4898.5,-607.2
4899.5,-607.2
4900.5,-607.2
4901.5,-607.2
4902.5,-607.2
4903.5,-607.2
4904.5,-2910.37
4905.5,947.171
4906.5,-835.968
4907.5,-607.2
4908.5,-3149.55
4909.5,41598.5
4910.5,107858
4911.5,107966
4912.5,108373
4913.5,109098
4914.5,109005
4915.5,109450
4916.5,25922.2
4917.5,-607.2
4918.5,-607.2
4919.5,-607.2
4920.5,-607.2
4921.5,-607.2
4922.5,-607.2
4923.5,-607.2
4924.5,-607.2
4925.5,-607.2
4926.5,-607.2
4927.5,-607.2
4928.5,-3829.31
4929.5,67900.5
4930.5,109100
4931.5,107868
4932.5,106850
4933.5,106237
4934.5,105921
4935.5,106126
4936.5,106648
4937.5,107675
4938.5,108893
4939.5,110316
4940.5,112841
4941.5,113329
4942.5,113327
4943.5,113346
4944.5,113392
4945.5,113427
4946.5,66813.7
4947.5,-607.2
4948.5,-607.2
4949.5,-607.2
4950.5,-607.2
4951.5,-2437.48
4952.5,20756.3
4953.5,108690
4954.5,107026
4955.5,105472
4956.5,104271
4957.5,103501
4958.5,103209
4959.5,103435
4960.5,104173
4961.5,105389
4962.5,106940
4963.5,109184
4964.5,112642
4965.5,113373
4966.5,113724
4967.5,113994
4968.5,114128
4969.5,114181
4970.5,114201
4971.5,114217
4972.5,114121
4973.5,21388.9
4974.5,-607.2
4975.5,-2507.02
4976.5,22951.5
4977.5,107448
4978.5,105613
4979.5,104151
4980.5,103056
4981.5,102315
4982.5,102191
4983.5,102568
4984.5,103200
4985.5,104478
4986.5,106102
4987.5,108281
4988.5,111783
4989.5,112705
4990.5,113421
4991.5,113910
4992.5,114109
4993.5,114180
4994.5,114183
4995.5,114111
4996.5,113902
4997.5,-607.2
4998.5,-607.2
4999.5,-2432.16
5000.5,20624.3
5001.5,106922
5002.5,104920
5003.5,103273
5004.5,102128
5005.5,101299
5006.5,100915
5007.5,101300
5008.5,102083
5009.5,103515
5010.5,105147
5011.5,107854
5012.5,111947
5013.5,113010
5014.5,113468
5015.5,113757
5016.5,113909
5017.5,113797
5018.5,113670
5019.5,113692
5020.5,113726
5021.5,37081.6
5022.5,-607.2
5023.5,-607.2
5024.5,-4035.92
5025.5,80746.1
5026.5,108387
5027.5,105690
5028.5,103528
5029.5,106397
5030.5,102851
5031.5,-835.968
5032.5,-2267
5033.5,-835.968
5034.5,-607.2
5035.5,-607.2
5036.5,-607.2
5037.5,-607.2
5038.5,-607.2
5039.5,-607.2
5040.5,-607.2
5041.5,-607.2
5042.5,-607.2
5043.5,-607.2
5044.5,-607.2
5045.5,-607.2
5046.5,-607.2
5047.5,-1847.14
5048.5,-3865.96
5049.5,95618.9
5050.5,105258
5051.5,102304
5052.5,100588
5053.5,99520.8
5054.5,99127.4
5055.5,99223.7
5056.5,99842.2
5057.5,101092
5058.5,102772
5059.5,105249
5060.5,109180
5061.5,110307
5062.5,110901
5063.5,111397
5064.5,111674
5065.5,111861
5066.5,95261.4
5067.5,-607.2
5068.5,-607.2
5069.5,-607.2
5070.5,-607.2
5071.5,-607.2
5072.5,-2974.87
5073.5,18476.8
5074.5,107019
5075.5,104933
5076.5,102991
5077.5,101326
5078.5,100421
5079.5,100433
5080.5,101193
5081.5,102631
5082.5,104103
5083.5,107234
5084.5,108694
5085.5,109558
5086.5,69710.1
5087.5,-607.2
5088.5,-607.2
5089.5,-607.2
5090.5,-607.2
5091.5,-607.2
5092.5,-607.2
5093.5,-607.2
5094.5,-607.2
5095.5,-607.2
5096.5,-607.2
5097.5,-607.2
5098.5,-607.2
5099.5,-607.2
5100.5,-607.2
5101.5,-6302.46
5102.5,105247
5103.5,105570
5104.5,106209
5105.5,107203
5106.5,108476
5107.5,110884
5108.5,112144
5109.5,97442.6
5110.5,-607.2
5111.5,-607.2
5112.5,-607.2
5113.5,-607.2
5114.5,-607.2
5115.5,-607.2
5116.5,-607.2
5117.5,-607.2
5118.5,-607.2
5119.5,-607.2
5120.5,-4379.29
5121.5,99529.8
5122.5,106736
5123.5,105038
5124.5,103967
5125.5,103272
5126.5,103451
5127.5,103793
5128.5,104508
5129.5,105770
5130.5,107240
5131.5,109628
5132.5,113045
5133.5,113756
5134.5,113941
5135.5,114090
5136.5,114257
5137.5,114300
5138.5,114265
5139.5,114200
5140.5,101338
5141.5,-607.2
5142.5,-607.2
5143.5,-607.2
5144.5,-4541.34
5145.5,103525
5146.5,105454
5147.5,103869
5148.5,108706
5149.5,101665
5150.5,102494
5151.5,102914
5152.5,103795
5153.5,105151
5154.5,106845
5155.5,109395
5156.5,112828
5157.5,113343
5158.5,113607
5159.5,113867
5160.5,113942
5161.5,56207.3
5162.5,-607.2
5163.5,-607.2
5164.5,-607.2
5165.5,-607.2
5166.5,-607.2
5167.5,-607.2
5168.5,-3981.45
5169.5,76860.7
5170.5,106394
5171.5,104587
5172.5,103338
5173.5,102749
5174.5,102527
5175.5,102844
5176.5,103648
5177.5,104906
5178.5,108994
5179.5,110921
5180.5,112471
5181.5,113150
5182.5,113573
5183.5,113711
5184.5,95879.9
5185.5,-607.2
5186.5,-607.2
5187.5,-607.2
5188.5,-607.2
5189.5,-607.2
5190.5,-607.2
5191.5,-607.2
5192.5,-2006.57
5193.5,-3342.95
5194.5,63144
5195.5,107723
5196.5,106464
5197.5,105805
5198.5,105681
5199.5,106004
5200.5,106674
5201.5,107794
5202.5,109024
5203.5,111661
5204.5,112522
5205.5,112895
5206.5,113123
5207.5,34986.9
5208.5,-607.2
5209.5,-607.2
5210.5,-607.2
5211.5,-607.2
5212.5,-607.2
5213.5,-607.2
5214.5,-607.2
5215.5,-607.2
5216.5,-3736.99
5217.5,60941.7
5218.5,109210
5219.5,107868
5220.5,106853
5221.5,110633
5222.5,104435
5223.5,105819
5224.5,106584
5225.5,107765
5226.5,109201
5227.5,112694
5228.5,113581
5229.5,113737
5230.5,113745
5231.5,58041.5
5232.5,-607.2
5233.5,-607.2
5234.5,-607.2
5235.5,-607.2
5236.5,-607.2
5237.5,-607.2
5238.5,-607.2
5239.5,-607.2
5240.5,-607.2
5241.5,-1945.87
5242.5,18179.6
5243.5,26044.7
5244.5,-6525.9
5245.5,38133.8
5246.5,-607.2
5247.5,-6105.87
5248.5,106702
5249.5,107872
5250.5,108794
5251.5,95405.6
5252.5,-607.2
5253.5,-607.2
5254.5,-607.2
5255.5,-607.2
5256.5,-607.2
5257.5,-607.2
5258.5,-607.2
5259.5,-607.2
5260.5,-607.2
5261.5,-607.2
5262.5,-607.2
5263.5,-607.2
5264.5,-3836.75
5265.5,67395.8
5266.5,107038
5267.5,105536
5268.5,104413
5269.5,103669
5270.5,103489
5271.5,103798
5272.5,104547
5273.5,105674
5274.5,107156
5275.5,111100
5276.5,112740
5277.5,113206
5278.5,113361
5279.5,113337
5280.5,113368
5281.5,106995
5282.5,-607.2
5283.5,-607.2
5284.5,-607.2
5285.5,-607.2
5286.5,-607.2
5287.5,-607.2
5288.5,-607.2
5289.5,-607.2
5290.5,-607.2
5291.5,-607.2
5292.5,-607.2
5293.5,-607.2
5294.5,-607.2
5295.5,-607.2
5296.5,-607.2
5297.5,-4584.46
5298.5,-845.137
5299.5,-2228.33
5300.5,-835.968
5301.5,-607.2
5302.5,-607.2
5303.5,-607.2
5304.5,-607.2
5305.5,-607.2
5306.5,-607.2
5307.5,-607.2
5308.5,-607.2
5309.5,-607.2
5310.5,-607.2
5311.5,-607.2
5312.5,-607.2
5313.5,-4096.74
5314.5,-835.968
5315.5,-5458.67
5316.5,107719
5317.5,107072
5318.5,106604
5319.5,106637
5320.5,107089
5321.5,108113
5322.5,109297
5323.5,110738
5324.5,111503
5325.5,111627
5326.5,111730
5327.5,35348.2
5328.5,-607.2
5329.5,-607.2
5330.5,-607.2
5331.5,-607.2
5332.5,-607.2
5333.5,-607.2
5334.5,-607.2
5335.5,-607.2
5336.5,-3913.69
5337.5,72942.6
5338.5,107452
5339.5,105569
5340.5,104131
5341.5,103155
5342.5,103318
5343.5,103603
5344.5,104374
5345.5,105648
5346.5,107300
5347.5,111338
5348.5,112881
5349.5,113380
5350.5,113602
5351.5,113637
5352.5,113499
5353.5,113358
5354.5,57836.5
5355.5,-607.2
5356.5,-607.2
5357.5,-607.2
5358.5,-607.2
5359.5,-607.2
5360.5,-607.2
5361.5,-607.2
5362.5,-607.2
5363.5,-607.2
5364.5,-607.2
5365.5,-607.2
5366.5,-5671.51
5367.5,105457
5368.5,80870.9
5369.5,-607.2
5370.5,-607.2
5371.5,-607.2
5372.5,-607.2
5373.5,-607.2
5374.5,-607.2
5375.5,-607.2
5376.5,-607.2
5377.5,-607.2
5378.5,-607.2
5379.5,-607.2
5380.5,-607.2
5381.5,-607.2
5382.5,-607.2
5383.5,-607.2
5384.5,-3549.97
5385.5,-835.968
5386.5,-5129.41
5387.5,107754
5388.5,106513
5389.5,106951
5390.5,42004
5391.5,-6112.4
5392.5,29257.8
5393.5,-607.2
5394.5,-607.2
5395.5,-607.2
5396.5,-607.2
5397.5,-607.2
5398.5,-607.2
5399.5,-607.2
5400.5,-607.2
5401.5,-607.2
5402.5,-607.2
5403.5,-607.2
5404.5,-607.2
5405.5,-607.2
5406.5,-607.2
5407.5,-607.2
5408.5,-607.2
5409.5,-607.2
5410.5,-607.2
5411.5,-607.2
5412.5,-607.2
5413.5,-607.2
5414.5,-607.2
5415.5,-4493.48
5416.5,-835.968
5417.5,-3913.03
5418.5,-835.968
5419.5,-607.2
5420.5,-607.2
5421.5,-607.2
5422.5,-607.2
5423.5,-607.2
5424.5,-607.2
5425.5,-607.2
5426.5,-607.2
5427.5,-607.2
5428.5,-607.2
5429.5,-607.2
5430.5,-607.2
5431.5,-607.2
5432.5,-607.2
5433.5,-607.2
5434.5,-607.2
5435.5,-607.2
5436.5,-607.2
5437.5,-607.2
5438.5,-607.2
5439.5,-607.2
5440.5,-607.2
5441.5,-607.2
5442.5,-607.2
5443.5,-607.2
5444.5,-607.2
5445.5,-607.2
5446.5,-607.2
5447.5,-607.2
5448.5,-607.2
5449.5,-607.2
5450.5,-607.2
5451.5,-607.2
5452.5,-607.2
5453.5,-607.2
5454.5,-607.2
5455.5,-607.2
5456.5,-607.2
5457.5,-4305.1
5458.5,-835.968
5459.5,-607.2
5460.5,-607.2
5461.5,-1707.82
5462.5,-835.968
5463.5,-607.2
5464.5,-607.2
5465.5,-4855.5
5466.5,7131.38
5467.5,-607.2
5468.5,-607.2
5469.5,-607.2
5470.5,-607.2
5471.5,-607.2
5472.5,-607.2
5473.5,-607.2
5474.5,-607.2
5475.5,-607.2
5476.5,-607.2
5477.5,-607.2
5478.5,-607.2
5479.5,-607.2
5480.5,-607.2
5481.5,-607.2
5482.5,-607.2
5483.5,-607.2
5484.5,-607.2
5485.5,-607.2
5486.5,-6540.47
5487.5,107916
5488.5,108779
5489.5,109921
5490.5,110367
5491.5,105625
5492.5,105979
5493.5,4064.09
5494.5,-607.2
5495.5,-607.2
5496.5,-607.2
5497.5,-607.2
5498.5,-607.2
5499.5,-607.2
5500.5,-607.2
5501.5,-607.2
5502.5,-607.2
5503.5,-607.2
5504.5,-607.2
5505.5,-2014.68
5506.5,-835.968
5507.5,-607.2
5508.5,-607.2
5509.5,-607.2
5510.5,-607.2
5511.5,-607.2
5512.5,-607.2
5513.5,-607.2
5514.5,-607.2
5515.5,-607.2
5516.5,-607.2
5517.5,-607.2
5518.5,-607.2
5519.5,-607.2
5520.5,-607.2
5521.5,-607.2
5522.5,-607.2
5523.5,-607.2
5524.5,-607.2
5525.5,-607.2
5526.5,-607.2
5527.5,-607.2
5528.5,-607.2
5529.5,-4076.78
5530.5,85460.6
5531.5,109677
5532.5,108840
5533.5,108250
5534.5,107285
5535.5,107378
5536.5,107933
5537.5,108901
5538.5,110110
5539.5,110305
5540.5,111054
5541.5,111210
5542.5,111341
5543.5,75226
5544.5,-607.2
5545.5,-607.2
5546.5,-607.2
5547.5,-607.2
5548.5,-607.2
5549.5,-607.2
5550.5,-607.2
5551.5,-607.2
5552.5,-3889.15
5553.5,72387.8
5554.5,108942
5555.5,107473
5556.5,106419
5557.5,105690
5558.5,105607
5559.5,105724
5560.5,106380
5561.5,107655
5562.5,109294
5563.5,112941
5564.5,113830
5565.5,113992
5566.5,114099
5567.5,114038
5568.5,113781
5569.5,113811
5570.5,113786
5571.5,-607.2
5572.5,-607.2
5573.5,-607.2
5574.5,-607.2
5575.5,-607.2
5576.5,-3649.9
5577.5,-835.968
5578.5,-2130.01
5579.5,-835.968
5580.5,-607.2
5581.5,-607.2
5582.5,-607.2
5583.5,-607.2
5584.5,-607.2
5585.5,-607.2
5586.5,-607.2
5587.5,-607.2
5588.5,-607.2
5589.5,-607.2
5590.5,-607.2
5591.5,-607.2
5592.5,-607.2
5593.5,-607.2
5594.5,-607.2
5595.5,-607.2
5596.5,-607.2
5597.5,-607.2
5598.5,-607.2
5599.5,-607.2
5600.5,-607.2
5601.5,-607.2
5602.5,-607.2
5603.5,-607.2
5604.5,-1835.37
5605.5,-835.968
5606.5,-607.2
5607.5,-607.2
5608.5,-5419.79
5609.5,19075.7
5610.5,-607.2
5611.5,-607.2
5612.5,-607.2
5613.5,-607.2
5614.5,-607.2
5615.5,-607.2
5616.5,-607.2
5617.5,-607.2
5618.5,-607.2
5619.5,-607.2
5620.5,-607.2
5621.5,-607.2
5622.5,-607.2
5623.5,-607.2
5624.5,-607.2
5625.5,-607.2
5626.5,-607.2
5627.5,-607.2
5628.5,-6740.28
5629.5,34807.8
5630.5,-6854.5
5631.5,105838
5632.5,106616
5633.5,107722
5634.5,109274
5635.5,110026
5636.5,110951
5637.5,45226.5
5638.5,-607.2
5639.5,-607.2
5640.5,-607.2
5641.5,-607.2
5642.5,-607.2
5643.5,-607.2
5644.5,-607.2
5645.5,-607.2
5646.5,-607.2
5647.5,-607.2
5648.5,-3960.37
5649.5,76420.3
5650.5,107236
5651.5,107315
5652.5,-2490.37
5653.5,103758
5654.5,103961
5655.5,104309
5656.5,105116
5657.5,106408
5658.5,108057
5659.5,111785
5660.5,113110
5661.5,113495
5662.5,113609
5663.5,57628.6
5664.5,-607.2
5665.5,-607.2
5666.5,-607.2
5667.5,-607.2
5668.5,-607.2
5669.5,-607.2
5670.5,-607.2
5671.5,-607.2
5672.5,-3899.56
5673.5,72325.2
5674.5,107158
5675.5,105184
5676.5,103964
5677.5,103368
5678.5,107545
5679.5,102813
5680.5,107862
5681.5,104875
5682.5,107479
5683.5,110647
5684.5,17971.6
5685.5,-607.2
5686.5,-607.2
5687.5,-607.2
5688.5,-607.2
5689.5,-607.2
5690.5,-607.2
5691.5,-607.2
5692.5,-607.2
5693.5,-607.2
5694.5,-607.2
5695.5,-607.2
5696.5,-607.2
5697.5,-607.2
5698.5,-607.2
5699.5,-607.2
5700.5,-607.2
5701.5,-607.2
5702.5,-607.2
5703.5,-607.2
5704.5,-607.2
5705.5,-607.2
5706.5,-3515.62
5707.5,-835.968
5708.5,-607.2
5709.5,-607.2
5710.5,-607.2
5711.5,-607.2
5712.5,-607.2
5713.5,-607.2
5714.5,-607.2
5715.5,-607.2
5716.5,-607.2
5717.5,-607.2
5718.5,-607.2
5719.5,-607.2
5720.5,-2644.09
5721.5,13308.2
5722.5,111214
5723.5,110485
5724.5,109946
5725.5,109560
5726.5,110237
5727.5,110249
5728.5,110503
5729.5,111032
5730.5,110381
5731.5,110696
5732.5,111108
5733.5,43274.4
5734.5,-607.2
5735.5,-607.2
5736.5,-607.2
5737.5,-607.2
5738.5,-607.2
5739.5,-607.2
5740.5,-607.2
5741.5,-607.2
5742.5,-607.2
5743.5,-607.2
5744.5,-3795.04
5745.5,65666.4
5746.5,109370
5747.5,108525
5748.5,107558
5749.5,106947
5750.5,106957
5751.5,107283
5752.5,108049
5753.5,109169
5754.5,110635
5755.5,113338
5756.5,113775
5757.5,113761
5758.5,113785
5759.5,113936
5760.5,114066
5761.5,114059
5762.5,64743.6
5763.5,-607.2
5764.5,-607.2
5765.5,-607.2
5766.5,-607.2
5767.5,-607.2
5768.5,-4147.96
5769.5,88392.8
5770.5,107985
5771.5,106473
5772.5,105397
5773.5,104805
5774.5,105506
5775.5,105938
5776.5,106845
5777.5,108224
5778.5,110055
5779.5,113750
5780.5,114418
5781.5,114614
5782.5,114727
5783.5,114722
5784.5,114756
5785.5,114740
5786.5,114691
5787.5,90372.8
5788.5,-607.2
5789.5,-607.2
5790.5,-607.2
5791.5,-607.2
5792.5,-4060.78
5793.5,82861.5
5794.5,108046
5795.5,106687
5796.5,105469
5797.5,104660
5798.5,104429
5799.5,104977
5800.5,106121
5801.5,107906
5802.5,110010
5803.5,113512
5804.5,114118
5805.5,114261
5806.5,114403
5807.5,114568
5808.5,114676
5809.5,114680
5810.5,114615
5811.5,71098.5
5812.5,-607.2
5813.5,-607.2
5814.5,-607.2
5815.5,-607.2
5816.5,-3476.82
5817.5,-1071.81
5818.5,-5293
5819.5,108017
5820.5,107107
5821.5,106823
5822.5,106096
5823.5,111075
5824.5,106834
5825.5,108908
5826.5,110356
5827.5,113227
5828.5,113752
5829.5,80355
5830.5,-607.2
5831.5,-607.2
5832.5,-607.2
5833.5,-607.2
5834.5,-607.2
5835.5,-607.2
5836.5,-607.2
5837.5,-607.2
5838.5,-607.2
5839.5,-607.2
5840.5,-607.2
5841.5,-1936
5842.5,-1841.87
5843.5,33871.1
5844.5,31534.5
5845.5,-607.2
5846.5,-607.2
5847.5,-607.2
5848.5,-1935.94
5849.5,-1987.71
5850.5,-835.968
5851.5,-607.2
5852.5,-607.2
5853.5,-607.2
5854.5,-607.2
5855.5,-607.2
5856.5,-607.2
5857.5,-607.2
5858.5,-607.2
5859.5,-607.2
5860.5,-607.2
5861.5,-607.2
5862.5,-607.2
5863.5,-607.2
5864.5,-607.2
5865.5,-1704.36
5866.5,-30.028
5867.5,-835.968
5868.5,-607.2
5869.5,-607.2
5870.5,-607.2
5871.5,-607.2
5872.5,-4987.71
5873.5,111150
5874.5,11639.8
5875.5,-607.2
5876.5,-607.2
5877.5,-607.2
5878.5,-607.2
5879.5,-607.2
5880.5,-607.2
5881.5,-607.2
5882.5,-607.2
5883.5,-607.2
5884.5,-607.2
5885.5,-607.2
5886.5,-607.2
5887.5,-607.2
5888.5,-2201.92
5889.5,-3839.61
5890.5,106809
5891.5,109897
5892.5,109063
5893.5,108508
5894.5,108408
5895.5,108742
5896.5,109485
5897.5,110460
5898.5,110041
5899.5,110984
5900.5,111423
5901.5,111416
5902.5,61613.1
5903.5,-607.2
5904.5,-607.2
5905.5,-607.2
5906.5,-607.2
5907.5,-607.2
5908.5,-607.2
5909.5,-607.2
5910.5,-607.2
5911.5,-607.2
5912.5,-607.2
5913.5,-607.2
5914.5,-607.2
5915.5,-1756.07
5916.5,-835.968
5917.5,-607.2
5918.5,-607.2
5919.5,-607.2
5920.5,-2057.85
5921.5,-2114.63
5922.5,-835.968
5923.5,-607.2
5924.5,-607.2
5925.5,-607.2
5926.5,-607.2
5927.5,-607.2
5928.5,-607.2
5929.5,-607.2
5930.5,-607.2
5931.5,-607.2
5932.5,-607.2
5933.5,-607.2
5934.5,-607.2
5935.5,-607.2
5936.5,-607.2
5937.5,-607.2
5938.5,-607.2
5939.5,-607.2
5940.5,-607.2
5941.5,-607.2
5942.5,-5126.57
5943.5,110048
5944.5,8803.76
5945.5,-607.2
5946.5,-607.2
5947.5,-607.2
5948.5,-607.2
5949.5,-607.2
5950.5,-607.2
5951.5,-607.2
5952.5,-607.2
5953.5,-607.2
5954.5,-607.2
5955.5,-607.2
5956.5,-607.2
5957.5,-607.2
5958.5,-607.2
5959.5,-607.2
5960.5,-607.2
5961.5,-607.2
5962.5,-2184.03
5963.5,-3822.24
5964.5,102403
5965.5,110985
5966.5,109382
5967.5,109615
5968.5,110221
5969.5,111086
5970.5,109277
5971.5,107677
5972.5,41459.6
5973.5,-607.2
5974.5,-607.2
5975.5,-607.2
5976.5,-607.2
5977.5,-607.2
5978.5,-607.2
5979.5,-607.2
5980.5,-607.2
5981.5,-607.2
5982.5,-607.2
5983.5,-607.2
5984.5,-3813.33
5985.5,67198.6
5986.5,109607
5987.5,108883
5988.5,108700
5989.5,108737
5990.5,108709
5991.5,109174
5992.5,109830
5993.5,110628
5994.5,110867
5995.5,112534
5996.5,113072
5997.5,113018
5998.5,112992
5999.5,25282.5
6000.5,-607.2
6001.5,-607.2
6002.5,-607.2
6003.5,-607.2
6004.5,-607.2
6005.5,-607.2
6006.5,-607.2
6007.5,-607.2
6008.5,-3334.4
6009.5,46959.6
6010.5,110167
6011.5,109154
6012.5,108504
6013.5,108509
6014.5,109023
6015.5,109876
6016.5,110830
6017.5,113386
6018.5,113851
6019.5,114055
6020.5,114116
6021.5,105593
6022.5,-607.2
6023.5,-607.2
6024.5,-607.2
6025.5,-607.2
6026.5,-607.2
6027.5,-607.2
6028.5,-607.2
6029.5,-607.2
6030.5,-607.2
6031.5,-607.2
6032.5,-2521.02
6033.5,15945.9
6034.5,111126
6035.5,110077
6036.5,109273
6037.5,108748
6038.5,108448
6039.5,108796
6040.5,109653
6041.5,110730
6042.5,111761
6043.5,114074
6044.5,114497
6045.5,114599
6046.5,114382
6047.5,114367
6048.5,57023.5
6049.5,-607.2
6050.5,-607.2
6051.5,-607.2
6052.5,-607.2
6053.5,-607.2
6054.5,-607.2
6055.5,-607.2
6056.5,-2985.68
6057.5,37096.8
6058.5,111101
6059.5,110138
6060.5,109507
6061.5,109298
6062.5,113098
6063.5,112109
6064.5,100063
6065.5,-1834.07
6066.5,-3647.21
6067.5,-835.968
6068.5,-607.2
6069.5,-607.2
6070.5,-607.2
6071.5,-607.2
6072.5,-607.2
6073.5,-607.2
6074.5,-607.2
6075.5,-607.2
6076.5,-607.2
6077.5,-607.2
6078.5,-607.2
6079.5,-607.2
6080.5,-607.2
6081.5,-1923.48
6082.5,-1982.53
6083.5,37011.1
6084.5,31219.8
6085.5,-6233.32
6086.5,109675
6087.5,110038
6088.5,110622
6089.5,110754
6090.5,111518
6091.5,17428.2
6092.5,-607.2
6093.5,-607.2
6094.5,-607.2
6095.5,-607.2
6096.5,-607.2
6097.5,-607.2
6098.5,-607.2
6099.5,-607.2
6100.5,-607.2
6101.5,-607.2
6102.5,-607.2
6103.5,-607.2
6104.5,-1859.02
6105.5,-3662.84
6106.5,85836.4
6107.5,109804
6108.5,109016
6109.5,108637
6110.5,108721
6111.5,109262
6112.5,110111
6113.5,110431
6114.5,111948
6115.5,112571
6116.5,88337.1
6117.5,-607.2
6118.5,-607.2
6119.5,-607.2
6120.5,-607.2
6121.5,-607.2
6122.5,-607.2
6123.5,-607.2
6124.5,-607.2
6125.5,-607.2
6126.5,-607.2
6127.5,-607.2
6128.5,-607.2
6129.5,-3697.5
6130.5,58730.8
6131.5,110516
6132.5,109860
6133.5,109494
6134.5,108922
6135.5,109266
6136.5,111229
6137.5,108965
6138.5,77351.5
6139.5,-607.2
6140.5,-607.2
6141.5,-607.2
6142.5,-607.2
6143.5,-607.2
6144.5,-607.2
6145.5,-607.2
6146.5,-607.2
6147.5,-607.2
6148.5,-607.2
6149.5,-607.2
6150.5,-607.2
6151.5,-607.2
6152.5,-1825.8
6153.5,-3666.35
6154.5,85547.7
6155.5,110212
6156.5,109329
6157.5,108814
6158.5,108818
6159.5,111779
6160.5,108767
6161.5,111144
6162.5,112552
6163.5,103812
6164.5,-607.2
6165.5,-607.2
6166.5,-607.2
6167.5,-607.2
6168.5,-607.2
6169.5,-607.2
6170.5,-607.2
6171.5,-607.2
6172.5,-607.2
6173.5,-607.2
6174.5,-607.2
6175.5,-607.2
6176.5,-3138.04
6177.5,-835.968
6178.5,-5597.28
6179.5,109373
6180.5,108730
6181.5,111808
6182.5,106929
6183.5,109005
6184.5,109825
6185.5,110805
6186.5,111819
6187.5,113936
6188.5,114145
6189.5,67671.3
6190.5,-607.2
6191.5,-607.2
6192.5,-607.2
6193.5,-607.2
6194.5,-607.2
6195.5,-607.2
6196.5,-607.2
6197.5,-607.2
6198.5,-607.2
6199.5,-607.2
6200.5,-607.2
6201.5,-607.2
6202.5,-1880.14
6203.5,-1919.33
6204.5,-835.968
6205.5,-607.2
6206.5,-607.2
6207.5,-6399.29
6208.5,110229
6209.5,111412
6210.5,111134
6211.5,4407.02
6212.5,-607.2
6213.5,-607.2
6214.5,-607.2
6215.5,-607.2
6216.5,-607.2
6217.5,-607.2
6218.5,-607.2
6219.5,-607.2
6220.5,-607.2
6221.5,-607.2
6222.5,-607.2
6223.5,-607.2
6224.5,-607.2
6225.5,-607.2
6226.5,-607.2
6227.5,-607.2
6228.5,-607.2
6229.5,-607.2
6230.5,-607.2
6231.5,-607.2
6232.5,-607.2
6233.5,-607.2
6234.5,-607.2
6235.5,-607.2
6236.5,-607.2
6237.5,-607.2
6238.5,-607.2
6239.5,-607.2
6240.5,-607.2
6241.5,-607.2
6242.5,-607.2
6243.5,-607.2
6244.5,-607.2
6245.5,-607.2
6246.5,-607.2
6247.5,-607.2
6248.5,-607.2
6249.5,-3524.82
6250.5,51807.8
6251.5,111595
6252.5,110998
6253.5,110599
6254.5,110628
6255.5,110877
6256.5,111385
6257.5,111300
6258.5,110165
6259.5,110519
6260.5,26023.5
6261.5,-607.2
6262.5,-607.2
6263.5,-607.2
6264.5,-607.2
6265.5,-607.2
6266.5,-607.2
6267.5,-607.2
6268.5,-607.2
6269.5,-607.2
6270.5,-607.2
6271.5,-607.2
6272.5,-1996.6
6273.5,-3813.57
6274.5,-835.968
6275.5,-5553.76
6276.5,110043
6277.5,109641
6278.5,109587
6279.5,109962
6280.5,110680
6281.5,111629
6282.5,112922
6283.5,113389
6284.5,113219
6285.5,103156
6286.5,-607.2
6287.5,-607.2
6288.5,-607.2
6289.5,-607.2
6290.5,-607.2
6291.5,-607.2
6292.5,-607.2
6293.5,-607.2
6294.5,-607.2
6295.5,-607.2
6296.5,-2760.96
6297.5,31886.9
6298.5,111013
6299.5,109874
6300.5,109043
6301.5,108782
6302.5,112949
6303.5,113106
6304.5,111906
6305.5,110026
6306.5,-835.968
6307.5,-607.2
6308.5,-607.2
6309.5,-607.2
6310.5,-607.2
6311.5,-607.2
6312.5,-607.2
6313.5,-607.2
6314.5,-607.2
6315.5,-607.2
6316.5,-607.2
6317.5,-607.2
6318.5,-607.2
6319.5,-607.2
6320.5,-2269.47
6321.5,6580.15
6322.5,111516
6323.5,110509
6324.5,109716
6325.5,109376
6326.5,109396
6327.5,109794
6328.5,110551
6329.5,111560
6330.5,113537
6331.5,113964
6332.5,114044
6333.5,114056
6334.5,96494.3
6335.5,-607.2
6336.5,-607.2
6337.5,-607.2
6338.5,-607.2
6339.5,-607.2
6340.5,-607.2
6341.5,-607.2
6342.5,-607.2
6343.5,-607.2
6344.5,-2399.14
6345.5,17410.3
6346.5,111185
6347.5,110074
6348.5,109294
6349.5,108881
6350.5,108772
6351.5,109280
6352.5,110137
6353.5,111213
6354.5,112187
6355.5,114258
6356.5,114606
6357.5,114592
6358.5,114313
6359.5,114326
6360.5,26655.5
6361.5,-607.2
6362.5,-607.2
6363.5,-607.2
6364.5,-607.2
6365.5,-607.2
6366.5,-607.2
6367.5,-607.2
6368.5,-2916.79
6369.5,36564.9
6370.5,110376
6371.5,109195
6372.5,108348
6373.5,107816
6374.5,107841
6375.5,108487
6376.5,109794
6377.5,111068
6378.5,112157
6379.5,114363
6380.5,114729
6381.5,114823
6382.5,114801
6383.5,114698
6384.5,114566
6385.5,43784.8
6386.5,-607.2
6387.5,-607.2
6388.5,-607.2
6389.5,-607.2
6390.5,-607.2
6391.5,-607.2
6392.5,-3133.36
6393.5,42415.6
6394.5,110048
6395.5,109002
6396.5,108104
6397.5,107672
6398.5,108187
6399.5,108750
6400.5,109758
6401.5,111012
6402.5,114025
6403.5,114605
6404.5,114612
6405.5,114605
6406.5,114632
6407.5,114727
6408.5,86020.2
6409.5,-607.2
6410.5,-607.2
6411.5,-607.2
6412.5,-607.2
6413.5,-607.2
6414.5,-607.2
6415.5,-607.2
6416.5,-2543.65
6417.5,24480.3
6418.5,110507
6419.5,58697.2
6420.5,-7049.46
6421.5,107878
6422.5,107993
6423.5,108570
6424.5,109567
6425.5,110860
6426.5,113957
6427.5,114556
6428.5,114617
6429.5,114558
6430.5,28366.4
6431.5,-607.2
6432.5,-607.2
6433.5,-607.2
6434.5,-607.2
6435.5,-607.2
6436.5,-607.2
6437.5,-607.2
6438.5,-607.2
6439.5,-607.2
6440.5,-2490.19
6441.5,21342.6
6442.5,111236
6443.5,110365
6444.5,109817
6445.5,109615
6446.5,109836
6447.5,112794
6448.5,110118
6449.5,111461
6450.5,113159
6451.5,17544
6452.5,-607.2
6453.5,-607.2
6454.5,-607.2
6455.5,-607.2
6456.5,-607.2
6457.5,-607.2
6458.5,-607.2
6459.5,-607.2
6460.5,-607.2
6461.5,-607.2
6462.5,-607.2
6463.5,-607.2
6464.5,-607.2
6465.5,-3822.27
6466.5,-835.968
6467.5,-5277.61
6468.5,110784
6469.5,110574
6470.5,110584
6471.5,110865
6472.5,111469
6473.5,111992
6474.5,113081
6475.5,113288
6476.5,64614.5
6477.5,-607.2
6478.5,-607.2
6479.5,-607.2
6480.5,-607.2
6481.5,-607.2
6482.5,-607.2
6483.5,-607.2
6484.5,-607.2
6485.5,-607.2
6486.5,-607.2
6487.5,-607.2
6488.5,-2453.16
6489.5,22649.9
6490.5,111154
6491.5,110132
6492.5,109439
6493.5,109162
6494.5,109235
6495.5,109708
6496.5,110641
6497.5,111743
6498.5,114252
6499.5,114469
6500.5,114490
6501.5,114512
6502.5,114541
6503.5,114450
6504.5,-607.2
6505.5,-607.2
6506.5,-607.2
6507.5,-607.2
6508.5,-607.2
6509.5,-607.2
6510.5,-607.2
6511.5,-607.2
6512.5,-1919
6513.5,-3912.46
6514.5,-835.968
6515.5,-5795.07
6516.5,109838
6517.5,109610
6518.5,109167
6519.5,109727
6520.5,110655
6521.5,111855
6522.5,113985
6523.5,114396
6524.5,114386
6525.5,114179
6526.5,33774
6527.5,-607.2
6528.5,-607.2
6529.5,-607.2
6530.5,-607.2
6531.5,-607.2
6532.5,-607.2
6533.5,-607.2
6534.5,-607.2
6535.5,-607.2
6536.5,-2415.06
6537.5,21429.7
6538.5,111037
6539.5,109883
6540.5,108955
6541.5,108576
6542.5,108737
6543.5,109422
6544.5,110466
6545.5,111789
6546.5,114346
6547.5,114650
6548.5,114781
6549.5,114795
6550.5,114748
6551.5,114628
6552.5,5285.14
6553.5,-607.2
6554.5,-607.2
6555.5,-607.2
6556.5,-607.2
6557.5,-607.2
6558.5,-607.2
6559.5,-607.2
6560.5,-2021.74
6561.5,374.92
6562.5,111684
6563.5,110590
6564.5,109845
6565.5,109529
6566.5,109551
6567.5,110142
6568.5,111117
6569.5,112172
6570.5,114505
6571.5,114740
6572.5,114820
6573.5,114815
6574.5,114727
6575.5,24516.2
6576.5,-607.2
6577.5,-607.2
6578.5,-607.2
6579.5,-607.2
6580.5,-607.2
6581.5,-607.2
6582.5,-607.2
6583.5,-607.2
6584.5,-607.2
6585.5,-3965.62
6586.5,78309.2
6587.5,111306
6588.5,110630
6589.5,110409
6590.5,110507
6591.5,110962
6592.5,111712
6593.5,112213
6594.5,114077
6595.5,114168
6596.5,114181
6597.5,61257.7
6598.5,-607.2
6599.5,-607.2
6600.5,-607.2
6601.5,-607.2
6602.5,-607.2
6603.5,-607.2
6604.5,-607.2
6605.5,-607.2
6606.5,-607.2
6607.5,-607.2
6608.5,-607.2
6609.5,-3659.22
6610.5,55997.6
6611.5,111492
6612.5,110953
6613.5,110667
6614.5,110739
6615.5,111143
6616.5,111817
6617.5,112030
6618.5,113387
6619.5,113659
6620.5,53420.1
6621.5,-607.2
6622.5,-607.2
6623.5,-607.2
6624.5,-607.2
6625.5,-607.2
6626.5,-607.2
6627.5,-607.2
6628.5,-607.2
6629.5,-607.2
6630.5,-607.2
6631.5,-607.2
6632.5,-607.2
6633.5,-4064.53
6634.5,84526
6635.5,110178
6636.5,109286
6637.5,108912
6638.5,109758
6639.5,110304
6640.5,111176
6641.5,111996
6642.5,113978
6643.5,114264
6644.5,114290
6645.5,114239
6646.5,64089.4
6647.5,-607.2
6648.5,-607.2
6649.5,-607.2
6650.5,-607.2
6651.5,-607.2
6652.5,-607.2
6653.5,-607.2
6654.5,-607.2
6655.5,-607.2
6656.5,-1782.14
6657.5,-3970.55
6658.5,104649
6659.5,110081
6660.5,109294
6661.5,108940
6662.5,109047
6663.5,109657
6664.5,110625
6665.5,111748
6666.5,114058
6667.5,114364
6668.5,114464
6669.5,114435
6670.5,109748
6671.5,-607.2
6672.5,-607.2
6673.5,-607.2
6674.5,-607.2
6675.5,-607.2
6676.5,-607.2
6677.5,-607.2
6678.5,-607.2
6679.5,-607.2
6680.5,-1862.59
6681.5,-3128.73
6682.5,111068
6683.5,109821
6684.5,109011
6685.5,108821
6686.5,109392
6687.5,113153
6688.5,109999
6689.5,113588
6690.5,114055
6691.5,66965.1
6692.5,-607.2
6693.5,-607.2
6694.5,-607.2
6695.5,-607.2
6696.5,-607.2
6697.5,-607.2
6698.5,-607.2
6699.5,-607.2
6700.5,-607.2
6701.5,-607.2
6702.5,-607.2
6703.5,-607.2
6704.5,-607.2
6705.5,-3957.7
6706.5,77571.5
6707.5,19282.2
6708.5,-607.2
6709.5,-607.2
6710.5,-607.2
6711.5,-1993.98
6712.5,-835.968
6713.5,-607.2
6714.5,-607.2
6715.5,-607.2
6716.5,-607.2
6717.5,-607.2
6718.5,-607.2
6719.5,-607.2
6720.5,-607.2
6721.5,-607.2
6722.5,-607.2
6723.5,-607.2
6724.5,-607.2
6725.5,-607.2
6726.5,-607.2
6727.5,-607.2
6728.5,-607.2
6729.5,-4239.94
6730.5,95677.3
6731.5,110380
6732.5,109760
6733.5,109680
6734.5,111263
6735.5,108794
6736.5,111730
6737.5,42513.3
6738.5,-607.2
6739.5,-607.2
6740.5,-607.2
6741.5,-607.2
6742.5,-607.2
6743.5,-607.2
6744.5,-607.2
6745.5,-607.2
6746.5,-607.2
6747.5,-607.2
6748.5,-607.2
6749.5,-607.2
6750.5,-607.2
6751.5,-607.2
6752.5,-607.2
6753.5,-2821.29
6754.5,16589.8
6755.5,111986
6756.5,111504
6757.5,111275
6758.5,100616
6759.5,-4737.35
6760.5,111828
6761.5,3791.01
6762.5,-607.2
6763.5,-607.2
6764.5,-607.2
6765.5,-607.2
6766.5,-607.2
6767.5,-607.2
6768.5,-607.2
6769.5,-607.2
6770.5,-607.2
6771.5,-607.2
6772.5,-607.2
6773.5,-607.2
6774.5,-607.2
6775.5,-607.2
6776.5,-607.2
6777.5,-607.2
6778.5,-607.2
6779.5,-607.2
6780.5,-607.2
6781.5,-2098.31
6782.5,-835.968
6783.5,-2250.29
6784.5,-835.968
6785.5,-607.2
6786.5,-607.2
6787.5,-607.2
6788.5,-607.2
6789.5,-607.2
6790.5,-607.2
6791.5,-607.2
6792.5,-607.2
6793.5,-607.2
6794.5,-607.2
6795.5,-607.2
6796.5,-607.2
6797.5,-607.2
6798.5,-607.2
6799.5,-607.2
6800.5,-607.2
6801.5,-607.2
6802.5,-607.2
6803.5,-607.2
6804.5,-607.2
6805.5,-607.2
6806.5,-607.2
6807.5,-607.2
6808.5,-607.2
6809.5,-607.2
6810.5,-607.2
6811.5,-607.2
6812.5,-607.2
6813.5,-607.2
6814.5,-607.2
6815.5,-607.2
6816.5,-607.2
6817.5,-607.2
6818.5,-607.2
6819.5,-607.2
6820.5,-607.2
6821.5,-607.2
6822.5,-607.2
6823.5,-607.2
6824.5,-607.2
6825.5,-3698.29
6826.5,59683.7
6827.5,111742
6828.5,111141
6829.5,110775
6830.5,110736
6831.5,111060
6832.5,111795
6833.5,112386
6834.5,110537
6835.5,109720
6836.5,109605
6837.5,74532.8
6838.5,-607.2
6839.5,-607.2
6840.5,-607.2
6841.5,-607.2
6842.5,-607.2
6843.5,-607.2
6844.5,-607.2
6845.5,-607.2
6846.5,-607.2
6847.5,-607.2
6848.5,-607.2
6849.5,-4615.03
6850.5,109088
6851.5,109671
6852.5,108978
6853.5,108677
6854.5,109040
6855.5,109754
6856.5,110861
6857.5,112334
6858.5,114331
6859.5,114669
6860.5,113802
6861.5,113766
6862.5,113701
6863.5,113604
6864.5,113450
6865.5,12724.7
6866.5,-607.2
6867.5,-607.2
6868.5,-607.2
6869.5,-607.2
6870.5,-607.2
6871.5,-607.2
6872.5,-607.2
6873.5,-4643.12
6874.5,109698
6875.5,109663
6876.5,108898
6877.5,108458
6878.5,108700
6879.5,109542
6880.5,110825
6881.5,112373
6882.5,114932
6883.5,115324
6884.5,114374
6885.5,114333
6886.5,114273
6887.5,114181
6888.5,114038
6889.5,27420.3
6890.5,-607.2
6891.5,-607.2
6892.5,-607.2
6893.5,-607.2
6894.5,-607.2
6895.5,-607.2
6896.5,-607.2
6897.5,-4497.24
6898.5,105231
6899.5,110688
6900.5,110102
6901.5,109893
6902.5,110161
6903.5,110752
6904.5,111716
6905.5,112758
6906.5,114062
6907.5,114260
6908.5,114200
6909.5,114113
6910.5,113979
6911.5,38545.1
6912.5,-607.2
6913.5,-607.2
6914.5,-607.2
6915.5,-607.2
6916.5,-607.2
6917.5,-607.2
6918.5,-607.2
6919.5,-607.2
6920.5,-607.2
6921.5,-3764.33
6922.5,64026.3
6923.5,111403
6924.5,110827
6925.5,110917
6926.5,111121
6927.5,114063
6928.5,113965
6929.5,91789.6
6930.5,-607.2
6931.5,-607.2
6932.5,-607.2
6933.5,-607.2
6934.5,-607.2
6935.5,-607.2
6936.5,-607.2
6937.5,-607.2
6938.5,-607.2
6939.5,-607.2
6940.5,-607.2
6941.5,-607.2
6942.5,-607.2
6943.5,-607.2
6944.5,-607.2
6945.5,-607.2
6946.5,-607.2
6947.5,-607.2
6948.5,-607.2
6949.5,-607.2
6950.5,-607.2
6951.5,-607.2
6952.5,-607.2
6953.5,-607.2
6954.5,-607.2
6955.5,-607.2
6956.5,-607.2
6957.5,-607.2
6958.5,-607.2
6959.5,-607.2
6960.5,-607.2
6961.5,-607.2
6962.5,-607.2
6963.5,-607.2
6964.5,-607.2
6965.5,-607.2
6966.5,-607.2
6967.5,-607.2
6968.5,-607.2
6969.5,-2974.25
6970.5,33917.9
6971.5,111971
6972.5,111376
6973.5,111117
6974.5,111233
6975.5,111714
6976.5,112451
6977.5,110748
6978.5,111071
6979.5,32438.2
6980.5,-607.2
6981.5,-607.2
6982.5,-607.2
6983.5,-607.2
6984.5,-607.2
6985.5,-607.2
6986.5,-607.2
6987.5,-607.2
6988.5,-607.2
6989.5,-607.2
6990.5,-607.2
6991.5,-607.2
6992.5,-607.2
6993.5,-3641.19
6994.5,54684.1
6995.5,111387
6996.5,110737
6997.5,110458
6998.5,110659
6999.5,111203
7000.5,112057
7001.5,112359
7002.5,113337
7003.5,113586
7004.5,113508
7005.5,35582.4
7006.5,-607.2
7007.5,-607.2
7008.5,-607.2
7009.5,-607.2
7010.5,-607.2
7011.5,-607.2
7012.5,-607.2
7013.5,-607.2
7014.5,-607.2
7015.5,-607.2
7016.5,-607.2
7017.5,-3692.8
7018.5,58710.2
7019.5,111191
7020.5,110455
7021.5,110197
7022.5,110322
7023.5,113282
7024.5,110545
7025.5,113461
7026.5,74420.5
7027.5,-607.2
7028.5,-607.2
7029.5,-607.2
7030.5,-607.2
7031.5,-607.2
7032.5,-607.2
7033.5,-607.2
7034.5,-607.2
7035.5,-607.2
7036.5,-607.2
7037.5,-607.2
7038.5,-607.2
7039.5,-607.2
7040.5,-607.2
7041.5,-3719.62
7042.5,60869.6
7043.5,111397
7044.5,111008
7045.5,110768
7046.5,110964
7047.5,111448
7048.5,112171
7049.5,113568
7050.5,113616
7051.5,113589
7052.5,22485.2
7053.5,-607.2
7054.5,-607.2
7055.5,-607.2
7056.5,-607.2
7057.5,-607.2
7058.5,-607.2
7059.5,-607.2
7060.5,-607.2
7061.5,-607.2
7062.5,-607.2
7063.5,-607.2
7064.5,-607.2
7065.5,-607.2
7066.5,-607.2
7067.5,-607.2
7068.5,-607.2
7069.5,-6153.67
7070.5,110958
7071.5,111566
7072.5,112400
7073.5,112261
7074.5,62765.1
7075.5,-607.2
7076.5,-607.2
7077.5,-607.2
7078.5,-607.2
7079.5,-607.2
7080.5,-607.2
7081.5,-607.2
7082.5,-607.2
7083.5,-607.2
7084.5,-607.2
7085.5,-607.2
7086.5,-607.2
7087.5,-607.2
7088.5,-607.2
7089.5,-607.2
7090.5,-607.2
7091.5,-2055.11
7092.5,22631.2
7093.5,111319
7094.5,111497
7095.5,111996
7096.5,112489
7097.5,111866
7098.5,67363.2
7099.5,-607.2
7100.5,-607.2
7101.5,-607.2
7102.5,-607.2
7103.5,-607.2
7104.5,-607.2
7105.5,-607.2
7106.5,-607.2
7107.5,-607.2
7108.5,-607.2
7109.5,-607.2
7110.5,-607.2
7111.5,-607.2
7112.5,-607.2
7113.5,-2493.72
7114.5,-468.136
7115.5,111742
7116.5,7637.05
7117.5,-607.2
7118.5,-607.2
7119.5,-4932.72
7120.5,1233.13
7121.5,-2088.36
7122.5,-607.2
7123.5,-607.2
7124.5,-607.2
7125.5,-607.2
7126.5,-607.2
7127.5,-607.2
7128.5,-607.2
7129.5,-607.2
7130.5,-607.2
7131.5,-607.2
7132.5,-607.2
7133.5,-607.2
7134.5,-607.2
7135.5,-607.2
7136.5,-607.2
7137.5,-607.2
7138.5,-2330.41
7139.5,-1783.07
7140.5,43384.3
7141.5,110876
7142.5,109441
7143.5,27987.7
7144.5,-607.2
7145.5,-3534.58
7146.5,-835.968
7147.5,-607.2
7148.5,-607.2
7149.5,-607.2
7150.5,-607.2
7151.5,-607.2
7152.5,-607.2
7153.5,-607.2
7154.5,-607.2
7155.5,-607.2
7156.5,-607.2
7157.5,-607.2
7158.5,-607.2
7159.5,-607.2
7160.5,-607.2
7161.5,-3502.5
7162.5,51846.5
7163.5,111752
7164.5,56447.9
7165.5,-5884.34
7166.5,111450
7167.5,92588
7168.5,-4358.8
7169.5,-835.968
7170.5,-607.2
7171.5,-607.2
7172.5,-607.2
7173.5,-607.2
7174.5,-607.2
7175.5,-607.2
7176.5,-607.2
7177.5,-607.2
7178.5,-607.2
7179.5,-607.2
7180.5,-607.2
7181.5,-607.2
7182.5,-607.2
7183.5,-607.2
7184.5,-607.2
7185.5,-3495.76
7186.5,51737.6
7187.5,111412
7188.5,110704
7189.5,110381
7190.5,110551
7191.5,111184
7192.5,112129
7193.5,112365
7194.5,112656
7195.5,112806
7196.5,112690
7197.5,73044.7
7198.5,-607.2
7199.5,-607.2
7200.5,-607.2
7201.5,-607.2
7202.5,-607.2
7203.5,-607.2
7204.5,-607.2
7205.5,-607.2
7206.5,-607.2
7207.5,-607.2
7208.5,-607.2
7209.5,-3994.01
7210.5,80442.1
7211.5,110711
7212.5,109871
7213.5,109611
7214.5,109893
7215.5,110653
7216.5,111797
7217.5,112398
7218.5,114458
7219.5,113775
7220.5,113696
7221.5,113579
7222.5,76132.4
7223.5,-607.2
7224.5,-607.2
7225.5,-607.2
7226.5,-607.2
7227.5,-607.2
7228.5,-607.2
7229.5,-607.2
7230.5,-607.2
7231.5,-607.2
7232.5,-607.2
7233.5,-3282.17
7234.5,40170.1
7235.5,112525
7236.5,2381.4
7237.5,-835.968
7238.5,-607.2
7239.5,-607.2
7240.5,-607.2
7241.5,-607.2
7242.5,-607.2
7243.5,-607.2
7244.5,-607.2
7245.5,-607.2
7246.5,-607.2
7247.5,-607.2
7248.5,-607.2
7249.5,-607.2
7250.5,-607.2
7251.5,-607.2
7252.5,-607.2
7253.5,-607.2
7254.5,-607.2
7255.5,-607.2
7256.5,-607.2
7257.5,-607.2
7258.5,-607.2
7259.5,-607.2
7260.5,-1903.93
7261.5,-835.968
7262.5,-607.2
7263.5,-607.2
7264.5,-607.2
7265.5,-607.2
7266.5,-607.2
7267.5,-607.2
7268.5,-607.2
7269.5,-607.2
7270.5,-607.2
7271.5,-607.2
7272.5,-607.2
7273.5,-607.2
7274.5,-607.2
7275.5,-607.2
7276.5,-607.2
7277.5,-607.2
7278.5,-607.2
7279.5,-607.2
7280.5,-607.2
7281.5,-607.2
7282.5,-607.2
7283.5,-607.2
7284.5,-607.2
7285.5,-5714.29
7286.5,110491
7287.5,111021
7288.5,111791
7289.5,106311
7290.5,46207.2
7291.5,-607.2
7292.5,-607.2
7293.5,-607.2
7294.5,-607.2
7295.5,-607.2
7296.5,-607.2
7297.5,-607.2
7298.5,-607.2
7299.5,-607.2
7300.5,-607.2
7301.5,-607.2
7302.5,-607.2
7303.5,-607.2
7304.5,-607.2
7305.5,-3259.99
7306.5,45286.6
7307.5,111850
7308.5,111260
7309.5,111176
7310.5,111590
7311.5,112305
7312.5,112097
7313.5,110930
7314.5,111052
7315.5,32432.5
7316.5,-607.2
7317.5,-607.2
7318.5,-607.2
7319.5,-607.2
7320.5,-607.2
7321.5,-607.2
7322.5,-607.2
7323.5,-607.2
7324.5,-607.2
7325.5,-607.2
7326.5,-607.2
7327.5,-607.2
7328.5,-607.2
7329.5,-3089.65
7330.5,40566.2
7331.5,111862
7332.5,111170
7333.5,110859
7334.5,110998
7335.5,111593
7336.5,112492
7337.5,113438
7338.5,112673
7339.5,112531
7340.5,20976.8
7341.5,-607.2
7342.5,-607.2
7343.5,-607.2
7344.5,-607.2
7345.5,-607.2
7346.5,-607.2
7347.5,-607.2
7348.5,-607.2
7349.5,-607.2
7350.5,-607.2
7351.5,-607.2
7352.5,-607.2
7353.5,-3733.69
7354.5,62026.1
7355.5,111257
7356.5,110609
7357.5,110442
7358.5,110782
7359.5,111561
7360.5,112549
7361.5,114077
7362.5,113366
7363.5,113268
7364.5,102613
7365.5,-607.2
7366.5,-607.2
7367.5,-607.2
7368.5,-607.2
7369.5,-607.2
7370.5,-607.2
7371.5,-607.2
7372.5,-607.2
7373.5,-607.2
7374.5,-607.2
7375.5,-607.2
7376.5,-607.2
7377.5,-3241.57
7378.5,45566.2
7379.5,111185
7380.5,110348
7381.5,110301
7382.5,110494
7383.5,111138
7384.5,111912
7385.5,114270
7386.5,113660
7387.5,113568
7388.5,114360
7389.5,34102.4
7390.5,-607.2
7391.5,-607.2
7392.5,-607.2
7393.5,-607.2
7394.5,-607.2
7395.5,-607.2
7396.5,-607.2
7397.5,-607.2
7398.5,-607.2
7399.5,-607.2
7400.5,-607.2
7401.5,-607.2
7402.5,-607.2
7403.5,-2636.03
7404.5,-3645.95
7405.5,-835.968
7406.5,-3749.05
7407.5,-835.968
7408.5,-607.2
7409.5,-607.2
7410.5,-607.2
7411.5,-607.2
7412.5,-607.2
7413.5,-607.2
7414.5,-607.2
7415.5,-607.2
7416.5,-607.2
7417.5,-607.2
7418.5,-607.2
7419.5,-607.2
7420.5,-607.2
7421.5,-607.2
7422.5,-607.2
7423.5,-607.2
7424.5,-607.2
7425.5,-607.2
7426.5,-1814.06
7427.5,-1853.01
7428.5,-3592.17
7429.5,-835.968
7430.5,-607.2
7431.5,-3877.42
7432.5,-835.968
7433.5,-607.2
7434.5,-607.2
7435.5,-607.2
7436.5,-607.2
7437.5,-607.2
7438.5,-607.2
7439.5,-607.2
7440.5,-607.2
7441.5,-607.2
7442.5,-607.2
7443.5,-607.2
7444.5,-607.2
7445.5,-607.2
7446.5,-607.2
7447.5,-607.2
7448.5,-607.2
7449.5,-2787.9
7450.5,38236.3
7451.5,109186
7452.5,108343
7453.5,108191
7454.5,108705
7455.5,109765
7456.5,111159
7457.5,111343
7458.5,112101
7459.5,112295
7460.5,112250
7461.5,112181
7462.5,112077
7463.5,111908
7464.5,-607.2
7465.5,-607.2
7466.5,-607.2
7467.5,-607.2
7468.5,-607.2
7469.5,-607.2
7470.5,-607.2
7471.5,-607.2
7472.5,-607.2
7473.5,-2404.66
7474.5,-3813.25
7475.5,110475
7476.5,111156
7477.5,111518
7478.5,110869
7479.5,111317
7480.5,111872
7481.5,112001
7482.5,80442.8
7483.5,-607.2
7484.5,-607.2
7485.5,-607.2
7486.5,-607.2
7487.5,-607.2
7488.5,-607.2
7489.5,-607.2
7490.5,-607.2
7491.5,-607.2
7492.5,-607.2
7493.5,-607.2
7494.5,-607.2
7495.5,-607.2
7496.5,-607.2
7497.5,-607.2
7498.5,-3334.55
7499.5,-1214.44
7500.5,-607.2
7501.5,-607.2
7502.5,-3644.85
7503.5,37727.8
7504.5,51696.4
7505.5,-835.968
7506.5,-607.2
7507.5,-607.2
7508.5,-607.2
7509.5,-607.2
7510.5,-607.2
7511.5,-607.2
7512.5,-607.2
7513.5,-607.2
7514.5,-607.2
7515.5,-607.2
7516.5,-607.2
7517.5,-607.2
7518.5,-607.2
7519.5,-607.2
7520.5,-607.2
7521.5,-3652.96
7522.5,55047.2
7523.5,111470
7524.5,111065
7525.5,110960
7526.5,111238
7527.5,111933
7528.5,112809
7529.5,111235
7530.5,111411
7531.5,111294
7532.5,45784.2
7533.5,-607.2
7534.5,-607.2
7535.5,-607.2
7536.5,-607.2
7537.5,-607.2
7538.5,-607.2
7539.5,-607.2
7540.5,-607.2
7541.5,-607.2
7542.5,-607.2
7543.5,-607.2
7544.5,-607.2
7545.5,-2792.9
7546.5,33448.1
7547.5,110813
7548.5,110294
7549.5,110167
7550.5,111330
7551.5,112108
7552.5,111887
7553.5,112650
7554.5,112811
7555.5,112663
7556.5,7738.57
7557.5,-607.2
7558.5,-607.2
7559.5,-607.2
7560.5,-607.2
7561.5,-607.2
7562.5,-607.2
7563.5,-607.2
7564.5,-607.2
7565.5,-607.2
7566.5,-607.2
7567.5,-607.2
7568.5,-607.2
7569.5,-2762.63
7570.5,30864.4
7571.5,111995
7572.5,111542
7573.5,111571
7574.5,111888
7575.5,112226
7576.5,112832
7577.5,64405.1
7578.5,-607.2
7579.5,-607.2
7580.5,-607.2
7581.5,-607.2
7582.5,-607.2
7583.5,-607.2
7584.5,-607.2
7585.5,-607.2
7586.5,-607.2
7587.5,-607.2
7588.5,-607.2
7589.5,-607.2
7590.5,-607.2
7591.5,-607.2
7592.5,-607.2
7593.5,-2186.71
7594.5,-3873.79
7595.5,106478
7596.5,112278
7597.5,112176
7598.5,112607
7599.5,111929
7600.5,76898.5
7601.5,-607.2
7602.5,-607.2
7603.5,-607.2
7604.5,-607.2
7605.5,-607.2
7606.5,-607.2
7607.5,-607.2
7608.5,-607.2
7609.5,-607.2
7610.5,-607.2
7611.5,-607.2
7612.5,-607.2
7613.5,-607.2
7614.5,-607.2
7615.5,-607.2
7616.5,-607.2
7617.5,-2806.49
7618.5,33630.3
7619.5,111575
7620.5,110908
7621.5,111134
7622.5,111148
7623.5,112097
7624.5,112654
7625.5,111700
7626.5,111842
7627.5,91523.2
7628.5,-607.2
7629.5,-607.2
7630.5,-607.2
7631.5,-607.2
7632.5,-607.2
7633.5,-607.2
7634.5,-607.2
7635.5,-607.2
7636.5,-607.2
7637.5,-607.2
7638.5,-607.2
7639.5,-607.2
7640.5,-607.2
7641.5,-607.2
7642.5,-3296.59
7643.5,45832.6
7644.5,112052
7645.5,111966
7646.5,112232
7647.5,112713
7648.5,111822
7649.5,94834.3
7650.5,-607.2
7651.5,-607.2
7652.5,-607.2
7653.5,-607.2
7654.5,-607.2
7655.5,-607.2
7656.5,-607.2
7657.5,-607.2
7658.5,-607.2
7659.5,-607.2
7660.5,-607.2
7661.5,-607.2
7662.5,-607.2
7663.5,-607.2
7664.5,-607.2
7665.5,-2730.02
7666.5,31821.6
7667.5,111449
7668.5,110568
7669.5,110232
7670.5,110527
7671.5,111339
7672.5,112502
7673.5,112791
7674.5,112954
7675.5,112858
7676.5,112708
7677.5,-607.2
7678.5,-607.2
7679.5,-607.2
7680.5,-607.2
7681.5,-607.2
7682.5,-607.2
7683.5,-607.2
7684.5,-607.2
7685.5,-607.2
7686.5,-607.2
7687.5,-607.2
7688.5,-607.2
7689.5,-3164.37
7690.5,43981.9
7691.5,111063
7692.5,111841
7693.5,110605
7694.5,112130
7695.5,111846
7696.5,112598
7697.5,112631
7698.5,112752
7699.5,61040.5
7700.5,-607.2
7701.5,-607.2
7702.5,-607.2
7703.5,-607.2
7704.5,-607.2
7705.5,-607.2
7706.5,-607.2
7707.5,-607.2
7708.5,-607.2
7709.5,-607.2
7710.5,-607.2
7711.5,-607.2
7712.5,-607.2
7713.5,-607.2
7714.5,-607.2
7715.5,-2518.13
7716.5,25637
7717.5,111522
7718.5,111549
7719.5,111931
7720.5,110260
7721.5,19291.5
7722.5,-607.2
7723.5,-607.2
7724.5,-607.2
7725.5,-607.2
7726.5,-607.2
7727.5,-607.2
7728.5,-607.2
7729.5,-607.2
7730.5,-607.2
7731.5,-607.2
7732.5,-607.2
7733.5,-607.2
7734.5,-607.2
7735.5,-607.2
7736.5,-607.2
7737.5,-607.2
7738.5,-3268.91
7739.5,45491.5
7740.5,111252
7741.5,111048
7742.5,111042
7743.5,111606
7744.5,111293
7745.5,110231
7746.5,41465.1
7747.5,-607.2
7748.5,-607.2
7749.5,-607.2
7750.5,-607.2
7751.5,-607.2
7752.5,-607.2
7753.5,-607.2
7754.5,-607.2
7755.5,-607.2
7756.5,-607.2
7757.5,-607.2
7758.5,-607.2
7759.5,-607.2
7760.5,-607.2
7761.5,-607.2
7762.5,-3603.21
7763.5,33398.3
7764.5,111634
7765.5,111466
7766.5,111699
7767.5,111429
7768.5,26035.4
7769.5,-607.2
7770.5,-607.2
7771.5,-607.2
7772.5,-607.2
7773.5,-607.2
7774.5,-607.2
7775.5,-607.2
7776.5,-607.2
7777.5,-607.2
7778.5,-607.2
7779.5,-607.2
7780.5,-607.2
7781.5,-607.2
7782.5,-607.2
7783.5,-607.2
7784.5,-607.2
7785.5,-607.2
7786.5,-2238.49
7787.5,-3586.71
7788.5,38896.1
7789.5,70508.2
7790.5,88891.8
7791.5,92260.5
7792.5,-835.968
7793.5,-607.2
7794.5,-607.2
7795.5,-607.2
7796.5,-607.2
7797.5,-607.2
7798.5,-607.2
7799.5,-607.2
7800.5,-607.2
7801.5,-607.2
7802.5,-607.2
7803.5,-607.2
7804.5,-607.2
7805.5,-607.2
7806.5,-607.2
7807.5,-607.2
7808.5,-607.2
7809.5,-607.2
7810.5,-2122.53
7811.5,-3211.76
7812.5,46221
7813.5,-835.968
7814.5,-2933.44
7815.5,-1644.2
7816.5,-607.2
7817.5,-607.2
7818.5,-607.2
7819.5,-607.2
7820.5,-607.2
7821.5,-607.2
7822.5,-607.2
7823.5,-607.2
7824.5,-607.2
7825.5,-607.2
7826.5,-607.2
7827.5,-607.2
7828.5,-607.2
7829.5,-607.2
7830.5,-607.2
7831.5,-607.2
7832.5,-607.2
7833.5,-607.2
7834.5,-607.2
7835.5,-2683.09
7836.5,-1889.7
7837.5,-3271.86
7838.5,-1195.65
7839.5,-2120.1
7840.5,-835.968
7841.5,-607.2
7842.5,-607.2
7843.5,-607.2
7844.5,-607.2
7845.5,-607.2
7846.5,-607.2
7847.5,-607.2
7848.5,-607.2
7849.5,-607.2
7850.5,-607.2
7851.5,-607.2
7852.5,-607.2
7853.5,-607.2
7854.5,-607.2
7855.5,-607.2
7856.5,-960.427
7857.5,-1117.45
7858.5,-1115.93
7859.5,-2970.76
7860.5,-2052.97
7861.5,-1343.37
7862.5,-1115.22
7863.5,-1116.33
7864.5,-1117.24
7865.5,-1117.95
7866.5,-1118.46
7867.5,-1118.87
7868.5,-1118.97
7869.5,-1118.87
7870.5,-1118.77
7871.5,-1118.97
7872.5,-1119.07
7873.5,-1119.27
7874.5,-1119.48
7875.5,-1119.68
7876.5,-1119.78
7877.5,-1119.88
7878.5,-1119.78
7879.5,-1119.68
7880.5,-1119.27
7881.5,-1118.56
7882.5,-1117.24
7883.5,-1115.82
7884.5,-3782.6
7885.5,46098
7886.5,111642
7887.5,111963
7888.5,103667
7889.5,-835.968
7890.5,-607.2
7891.5,-607.2
7892.5,-607.2
7893.5,-607.2
7894.5,-607.2
7895.5,-607.2
7896.5,-607.2
7897.5,-607.2
7898.5,-607.2
7899.5,-607.2
7900.5,-607.2
7901.5,-607.2
7902.5,-607.2
7903.5,-607.2
7904.5,-607.2
7905.5,-607.2
7906.5,-3404.44
7907.5,23704.6
7908.5,111253
7909.5,110942
7910.5,111053
7911.5,111509
7912.5,110429
7913.5,102981
7914.5,39618.7
7915.5,-607.2
7916.5,-607.2
7917.5,-607.2
7918.5,-607.2
7919.5,-607.2
7920.5,-607.2
7921.5,-607.2
7922.5,-607.2
7923.5,-607.2
7924.5,-607.2
7925.5,-607.2
7926.5,-607.2
7927.5,-607.2
7928.5,-607.2
7929.5,-607.2
7930.5,-2804.13
7931.5,15368.8
7932.5,105344
7933.5,87740.6
7934.5,-835.968
7935.5,-607.2
7936.5,-3951.51
7937.5,-835.968
7938.5,-607.2
7939.5,-607.2
7940.5,-607.2
7941.5,-607.2
7942.5,-607.2
7943.5,-607.2
7944.5,-607.2
7945.5,-607.2
7946.5,-607.2
7947.5,-607.2
7948.5,-607.2
7949.5,-607.2
7950.5,-607.2
7951.5,-607.2
7952.5,-607.2
7953.5,-607.2
7954.5,-2667.72
7955.5,27208.8
7956.5,111789
7957.5,111644
7958.5,111719
7959.5,112041
7960.5,106539
7961.5,11209.6
7962.5,-607.2
7963.5,-607.2
7964.5,-607.2
7965.5,-607.2
7966.5,-607.2
7967.5,-607.2
7968.5,-607.2
7969.5,-607.2
7970.5,-607.2
7971.5,-607.2
7972.5,-607.2
7973.5,-607.2
7974.5,-607.2
7975.5,-607.2
7976.5,-607.2
7977.5,-607.2
7978.5,-4512.73
7979.5,106605
7980.5,109804
7981.5,109312
7982.5,109536
7983.5,110278
7984.5,111513
7985.5,111226
7986.5,111397
7987.5,111308
7988.5,111168
7989.5,53179.9
7990.5,-607.2
7991.5,-607.2
7992.5,-607.2
7993.5,-607.2
7994.5,-607.2
7995.5,-607.2
7996.5,-607.2
7997.5,-607.2
7998.5,-607.2
7999.5,-607.2
8000.5,-607.2
8001.5,-607.2
8002.5,-5013.29
8003.5,109851
8004.5,108957
8005.5,108684
8006.5,109078
8007.5,110028
8008.5,111527
8009.5,113596
8010.5,113775
8011.5,113710
8012.5,113627
8013.5,113495
8014.5,36899.3
8015.5,-607.2
8016.5,-607.2
8017.5,-607.2
8018.5,-607.2
8019.5,-607.2
8020.5,-607.2
8021.5,-607.2
8022.5,-607.2
8023.5,-607.2
8024.5,-607.2
8025.5,-607.2
8026.5,-3954.12
8027.5,77581
8028.5,110804
8029.5,110466
8030.5,110644
8031.5,111253
8032.5,112026
8033.5,112972
8034.5,113086
8035.5,53882.1
8036.5,-607.2
8037.5,-607.2
8038.5,-607.2
8039.5,-607.2
8040.5,-607.2
8041.5,-607.2
8042.5,-607.2
8043.5,-607.2
8044.5,-607.2
8045.5,-607.2
8046.5,-607.2
8047.5,-607.2
8048.5,-607.2
8049.5,-607.2
8050.5,-4010.48
8051.5,81381.5
8052.5,110847
8053.5,110619
8054.5,110833
8055.5,111440
8056.5,111879
8057.5,112474
8058.5,112562
8059.5,20077.2
8060.5,-607.2
8061.5,-607.2
8062.5,-607.2
8063.5,-607.2
8064.5,-607.2
8065.5,-607.2
8066.5,-607.2
8067.5,-607.2
8068.5,-607.2
8069.5,-607.2
8070.5,-607.2
8071.5,-607.2
8072.5,-607.2
8073.5,-607.2
8074.5,-4012.57
8075.5,81541.9
8076.5,110902
8077.5,110742
8078.5,111011
8079.5,111635
8080.5,111667
8081.5,112115
8082.5,104044
8083.5,-607.2
8084.5,-607.2
8085.5,-607.2
8086.5,-607.2
8087.5,-607.2
8088.5,-607.2
8089.5,-607.2
8090.5,-607.2
8091.5,-607.2
8092.5,-607.2
8093.5,-607.2
8094.5,-607.2
8095.5,-607.2
8096.5,-607.2
8097.5,-607.2
8098.5,-607.2
8099.5,-4450.56
8100.5,104930
8101.5,111328
8102.5,111468
8103.5,111858
8104.5,111053
8105.5,83904.5
8106.5,-607.2
8107.5,-607.2
8108.5,-607.2
8109.5,-607.2
8110.5,-607.2
8111.5,-607.2
8112.5,-607.2
8113.5,-607.2
8114.5,-607.2
8115.5,-607.2
8116.5,-607.2
8117.5,-607.2
8118.5,-607.2
8119.5,-607.2
8120.5,-607.2
8121.5,-607.2
8122.5,-1950.8
8123.5,23166.2
8124.5,109497
8125.5,109148
8126.5,109462
8127.5,110346
8128.5,111646
8129.5,112954
8130.5,113115
8131.5,113013
8132.5,112874
8133.5,34155.5
8134.5,-607.2
8135.5,-607.2
8136.5,-607.2
8137.5,-607.2
8138.5,-607.2
8139.5,-607.2
8140.5,-607.2
8141.5,-607.2
8142.5,-607.2
8143.5,-607.2
8144.5,-607.2
8145.5,-607.2
8146.5,-3477.72
8147.5,50599
8148.5,110062
8149.5,109755
8150.5,110107
8151.5,110977
8152.5,112046
8153.5,113178
8154.5,113316
8155.5,113168
8156.5,24719
8157.5,-607.2
8158.5,-607.2
8159.5,-607.2
8160.5,-607.2
8161.5,-607.2
8162.5,-607.2
8163.5,-607.2
8164.5,-607.2
8165.5,-607.2
8166.5,-607.2
8167.5,-607.2
8168.5,-607.2
8169.5,-607.2
8170.5,-3252.6
8171.5,44334.1
8172.5,111494
8173.5,111287
8174.5,111655
8175.5,111945
8176.5,110622
8177.5,19641
8178.5,-607.2
8179.5,-607.2
8180.5,-607.2
8181.5,-607.2
8182.5,-607.2
8183.5,-607.2
8184.5,-607.2
8185.5,-607.2
8186.5,-607.2
8187.5,-607.2
8188.5,-607.2
8189.5,-607.2
8190.5,-607.2
8191.5,-607.2
8192.5,-607.2
8193.5,-607.2
8194.5,-3847.89
8195.5,70151.2
8196.5,110780
8197.5,110511
8198.5,110728
8199.5,111386
8200.5,111765
8201.5,111624
8202.5,111721
8203.5,26215.3
8204.5,-607.2
8205.5,-607.2
8206.5,-607.2
8207.5,-607.2
8208.5,-607.2
8209.5,-607.2
8210.5,-607.2
8211.5,-607.2
8212.5,-607.2
8213.5,-607.2
8214.5,-607.2
8215.5,-607.2
8216.5,-607.2
8217.5,-607.2
8218.5,-3755.3
8219.5,63442.7
8220.5,111058
8221.5,110825
8222.5,111025
8223.5,111581
8224.5,111614
8225.5,111632
8226.5,80982.6
8227.5,-607.2
8228.5,-607.2
8229.5,-607.2
8230.5,-607.2
8231.5,-607.2
8232.5,-607.2
8233.5,-607.2
8234.5,-607.2
8235.5,-607.2
8236.5,-607.2
8237.5,-607.2
8238.5,-607.2
8239.5,-607.2
8240.5,-607.2
8241.5,-607.2
8242.5,-4249.56
8243.5,96134.1
8244.5,110142
8245.5,109855
8246.5,110109
8247.5,110852
8248.5,111964
8249.5,112874
8250.5,113023
8251.5,112900
8252.5,56222.1
8253.5,-607.2
8254.5,-607.2
8255.5,-607.2
8256.5,-607.2
8257.5,-607.2
8258.5,-607.2
8259.5,-607.2
8260.5,-607.2
8261.5,-607.2
8262.5,-607.2
8263.5,-607.2
8264.5,-607.2
8265.5,-607.2
8266.5,-3573.89
8267.5,51892.7
8268.5,109762
8269.5,109504
8270.5,109800
8271.5,110595
8272.5,111806
8273.5,113445
8274.5,113606
8275.5,113502
8276.5,113335
8277.5,10865
8278.5,-607.2
8279.5,-607.2
8280.5,-607.2
8281.5,-607.2
8282.5,-607.2
8283.5,-607.2
8284.5,-607.2
8285.5,-607.2
8286.5,-607.2
8287.5,-607.2
8288.5,-607.2
8289.5,-607.2
8290.5,-3516.16
8291.5,38945.4
8292.5,110317
8293.5,110004
8294.5,110210
8295.5,110882
8296.5,111946
8297.5,113041
8298.5,113170
8299.5,103993
8300.5,-607.2
8301.5,-607.2
8302.5,-607.2
8303.5,-607.2
8304.5,-607.2
8305.5,-607.2
8306.5,-607.2
8307.5,-607.2
8308.5,-607.2
8309.5,-607.2
8310.5,-607.2
8311.5,-607.2
8312.5,-607.2
8313.5,-607.2
8314.5,-3695.09
8315.5,57765.8
8316.5,109746
8317.5,109307
8318.5,109496
8319.5,110286
8320.5,111587
8321.5,113511
8322.5,113681
8323.5,113578
8324.5,113425
8325.5,36156.3
8326.5,-607.2
8327.5,-607.2
8328.5,-607.2
8329.5,-607.2
8330.5,-607.2
8331.5,-607.2
8332.5,-607.2
8333.5,-607.2
8334.5,-607.2
8335.5,-607.2
8336.5,-607.2
8337.5,-607.2
8338.5,-3300.62
8339.5,40078.9
8340.5,99372.5
8341.5,-835.968
8342.5,-3977.73
8343.5,79470.8
8344.5,51435.7
8345.5,-835.968
8346.5,-607.2
8347.5,-607.2
8348.5,-607.2
8349.5,-607.2
8350.5,-607.2
8351.5,-607.2
8352.5,-607.2
8353.5,-607.2
8354.5,-607.2
8355.5,-607.2
8356.5,-607.2
8357.5,-607.2
8358.5,-607.2
8359.5,-607.2
8360.5,-607.2
8361.5,-607.2
8362.5,-3225.47
8363.5,7442.47
8364.5,111642
8365.5,111445
8366.5,111541
8367.5,111927
8368.5,109884
8369.5,57681.3
8370.5,-607.2
8371.5,-607.2
8372.5,-607.2
8373.5,-607.2
8374.5,-607.2
8375.5,-607.2
8376.5,-607.2
8377.5,-607.2
8378.5,-607.2
8379.5,-607.2
8380.5,-607.2
8381.5,-607.2
8382.5,-607.2
8383.5,-607.2
8384.5,-607.2
8385.5,-607.2
8386.5,-2117.9
8387.5,-2615.09
8388.5,-3705.59
8389.5,10419
8390.5,112062
8391.5,92318.3
8392.5,-835.968
8393.5,-607.2
8394.5,-607.2
8395.5,-607.2
8396.5,-607.2
8397.5,-607.2
8398.5,-607.2
8399.5,-607.2
8400.5,-607.2
8401.5,-607.2
8402.5,-607.2
8403.5,-607.2
8404.5,-607.2
8405.5,-607.2
8406.5,-607.2
8407.5,-607.2
8408.5,-607.2
8409.5,-607.2
8410.5,-2030.44
8411.5,-3512.66
8412.5,79681.5
8413.5,111408
8414.5,111400
8415.5,111737
8416.5,110186
8417.5,93526
8418.5,-607.2
8419.5,-607.2
8420.5,-607.2
8421.5,-607.2
8422.5,-607.2
8423.5,-607.2
8424.5,-607.2
8425.5,-607.2
8426.5,-607.2
8427.5,-607.2
8428.5,-607.2
8429.5,-607.2
8430.5,-607.2
8431.5,-607.2
8432.5,-607.2
8433.5,-607.2
8434.5,-3726.04
8435.5,61332
8436.5,110856
8437.5,110486
8438.5,110590
8439.5,111166
8440.5,112053
8441.5,110475
8442.5,110585
8443.5,58333.4
8444.5,-607.2
8445.5,-607.2
8446.5,-607.2
8447.5,-607.2
8448.5,-607.2
8449.5,-607.2
8450.5,-607.2
8451.5,-607.2
8452.5,-607.2
8453.5,-607.2
8454.5,-607.2
8455.5,-607.2
8456.5,-607.2
8457.5,-607.2
8458.5,-4239.29
8459.5,95552.2
8460.5,109932
8461.5,109559
8462.5,109794
8463.5,110570
8464.5,111752
8465.5,112971
8466.5,113132
8467.5,113030
8468.5,112868
8469.5,6513.05
8470.5,-607.2
8471.5,-607.2
8472.5,-607.2
8473.5,-607.2
8474.5,-607.2
8475.5,-607.2
8476.5,-607.2
8477.5,-607.2
8478.5,-607.2
8479.5,-607.2
8480.5,-607.2
8481.5,-607.2
8482.5,-2507.2
8483.5,29737.3
8484.5,109983
8485.5,111002
8486.5,110602
8487.5,111771
8488.5,112001
8489.5,112640
8490.5,112754
8491.5,49116
8492.5,-607.2
8493.5,-607.2
8494.5,-607.2
8495.5,-607.2
8496.5,-607.2
8497.5,-607.2
8498.5,-607.2
8499.5,-607.2
8500.5,-607.2
8501.5,-607.2
8502.5,-607.2
8503.5,-607.2
8504.5,-607.2
8505.5,-607.2
8506.5,-3912.58
8507.5,73846.5
8508.5,109679
8509.5,109276
8510.5,109500
8511.5,110318
8512.5,111610
8513.5,113450
8514.5,113610
8515.5,113511
8516.5,113372
8517.5,46799.5
8518.5,-607.2
8519.5,-607.2
8520.5,-607.2
8521.5,-607.2
8522.5,-607.2
8523.5,-607.2
8524.5,-607.2
8525.5,-607.2
8526.5,-607.2
8527.5,-607.2
8528.5,-607.2
8529.5,-607.2
8530.5,-2410.84
8531.5,25735.2
8532.5,109663
8533.5,109398
8534.5,110156
8535.5,110817
8536.5,112026
8537.5,113332
8538.5,113476
8539.5,113340
8540.5,46302
8541.5,-607.2
8542.5,-607.2
8543.5,-607.2
8544.5,-607.2
8545.5,-607.2
8546.5,-607.2
8547.5,-607.2
8548.5,-607.2
8549.5,-607.2
8550.5,-607.2
8551.5,-607.2
8552.5,-607.2
8553.5,-607.2
8554.5,-607.2
8555.5,-1755.38
8556.5,-835.968
8557.5,-607.2
8558.5,-3909.09
8559.5,19724.2
8560.5,-835.968
8561.5,-607.2
8562.5,-607.2
8563.5,-607.2
8564.5,-607.2
8565.5,-607.2
8566.5,-607.2
8567.5,-607.2
8568.5,-607.2
8569.5,-607.2
8570.5,-607.2
8571.5,-607.2
8572.5,-607.2
8573.5,-607.2
8574.5,-607.2
8575.5,-607.2
8576.5,-607.2
8577.5,-607.2
8578.5,-1928.06
8579.5,-3794.71
8580.5,-835.968
8581.5,-2264.25
8582.5,-3877.93
8583.5,-835.968
8584.5,-607.2
8585.5,-607.2
8586.5,-607.2
8587.5,-607.2
8588.5,-607.2
8589.5,-607.2
8590.5,-607.2
8591.5,-607.2
8592.5,-607.2
8593.5,-607.2
8594.5,-607.2
8595.5,-607.2
8596.5,-607.2
8597.5,-607.2
8598.5,-607.2
8599.5,-607.2
8600.5,-607.2
8601.5,-607.2
8602.5,-607.2
8603.5,-2200.92
8604.5,1074.11
8605.5,99439.6
8606.5,110292
8607.5,110908
8608.5,111922
8609.5,105078
8610.5,32391
8611.5,-607.2
8612.5,-607.2
8613.5,-607.2
8614.5,-607.2
8615.5,-607.2
8616.5,-607.2
8617.5,-607.2
8618.5,-607.2
8619.5,-607.2
8620.5,-607.2
8621.5,-607.2
8622.5,-607.2
8623.5,-607.2
8624.5,-607.2
8625.5,-607.2
8626.5,-4095.22
8627.5,86811.6
8628.5,110360
8629.5,110101
8630.5,110331
8631.5,110908
8632.5,111930
8633.5,111513
8634.5,111666
8635.5,111535
8636.5,33113.6
8637.5,-607.2
8638.5,-607.2
8639.5,-607.2
8640.5,-607.2
8641.5,-607.2
8642.5,-607.2
8643.5,-607.2
8644.5,-607.2
8645.5,-607.2
8646.5,-607.2
8647.5,-607.2
8648.5,-607.2
8649.5,-607.2
8650.5,-607.2
8651.5,-5150.07
8652.5,110460
8653.5,111130
8654.5,111354
8655.5,111865
8656.5,111256
8657.5,111243
8658.5,21982.2
8659.5,-607.2
8660.5,-607.2
8661.5,-607.2
8662.5,-607.2
8663.5,-607.2
8664.5,-607.2
8665.5,-607.2
8666.5,-607.2
8667.5,-607.2
8668.5,-607.2
8669.5,-607.2
8670.5,-607.2
8671.5,-607.2
8672.5,-607.2
8673.5,-607.2
8674.5,-607.2
8675.5,-2622.9
8676.5,31404.8
8677.5,14817.6
8678.5,-3838.84
8679.5,-835.968
8680.5,-2353.72
8681.5,-835.968
8682.5,-607.2
8683.5,-607.2
8684.5,-607.2
8685.5,-607.2
8686.5,-607.2
8687.5,-607.2
8688.5,-607.2
8689.5,-607.2
8690.5,-607.2
8691.5,-607.2
8692.5,-607.2
8693.5,-607.2
8694.5,-607.2
8695.5,-607.2
8696.5,-607.2
8697.5,-607.2
8698.5,-3671.15
8699.5,57413.7
8700.5,110878
8701.5,110571
8702.5,110747
8703.5,111317
8704.5,111840
8705.5,110145
8706.5,110232
8707.5,13166.5
8708.5,-607.2
8709.5,-607.2
8710.5,-607.2
8711.5,-607.2
8712.5,-607.2
8713.5,-607.2
8714.5,-607.2
8715.5,-607.2
8716.5,-607.2
8717.5,-607.2
8718.5,-607.2
8719.5,-607.2
8720.5,-607.2
8721.5,-607.2
8722.5,-607.2
8723.5,-3842.44
8724.5,69583
8725.5,111025
8726.5,110208
8727.5,110858
8728.5,111865
8729.5,111629
8730.5,111729
8731.5,28429.6
8732.5,-607.2
8733.5,-607.2
8734.5,-607.2
8735.5,-607.2
8736.5,-607.2
8737.5,-607.2
8738.5,-607.2
8739.5,-607.2
8740.5,-607.2
8741.5,-607.2
8742.5,-607.2
8743.5,-607.2
8744.5,-607.2
8745.5,-607.2
8746.5,-2660.32
8747.5,-3573.92
8748.5,99348.5
8749.5,110698
8750.5,110437
8751.5,111900
8752.5,111738
8753.5,111218
8754.5,52485.4
8755.5,-607.2
8756.5,-607.2
8757.5,-607.2
8758.5,-607.2
8759.5,-0
